        2-nd order single ODE 
     Method: Runge-Kutta 4th order
    t       x(t)        v(t)        energy
   0.00000  -2.50000   6.00000  21.12500
   0.01000  -2.43988   6.02470  21.12500
   0.02000  -2.37951   6.04880  21.12500
   0.03000  -2.31890   6.07229  21.12500
   0.04000  -2.25806   6.09517  21.12500
   0.05000  -2.19700   6.11745  21.12500
   0.06000  -2.13572   6.13911  21.12500
   0.07000  -2.07422   6.16016  21.12500
   0.08000  -2.01252   6.18060  21.12500
   0.09000  -1.95061   6.20041  21.12500
   0.10000  -1.88851   6.21961  21.12500
   0.11000  -1.82622   6.23818  21.12500
   0.12000  -1.76375   6.25613  21.12500
   0.13000  -1.70110   6.27346  21.12500
   0.14000  -1.63828   6.29015  21.12500
   0.15000  -1.57530   6.30622  21.12500
   0.16000  -1.51216   6.32166  21.12500
   0.17000  -1.44887   6.33646  21.12500
   0.18000  -1.38543   6.35064  21.12500
   0.19000  -1.32186   6.36417  21.12500
   0.20000  -1.25815   6.37707  21.12500
   0.21000  -1.19432   6.38934  21.12500
   0.22000  -1.13037   6.40096  21.12500
   0.23000  -1.06630   6.41194  21.12500
   0.24000  -1.00213   6.42228  21.12500
   0.25000  -0.93786   6.43198  21.12500
   0.26000  -0.87349   6.44104  21.12500
   0.27000  -0.80904   6.44945  21.12500
   0.28000  -0.74450   6.45722  21.12500
   0.29000  -0.67990   6.46434  21.12500
   0.30000  -0.61522   6.47082  21.12500
   0.31000  -0.55048   6.47665  21.12500
   0.32000  -0.48569   6.48183  21.12500
   0.33000  -0.42085   6.48636  21.12500
   0.34000  -0.35596   6.49025  21.12500
   0.35000  -0.29104   6.49348  21.12500
   0.36000  -0.22610   6.49607  21.12500
   0.37000  -0.16113   6.49800  21.12500
   0.38000  -0.09614   6.49929  21.12500
   0.39000  -0.03114   6.49993  21.12500
   0.40000   0.03386   6.49991  21.12500
   0.41000   0.09885   6.49925  21.12500
   0.42000   0.16384   6.49793  21.12500
   0.43000   0.22881   6.49597  21.12500
   0.44000   0.29376   6.49336  21.12500
   0.45000   0.35868   6.49010  21.12500
   0.46000   0.42356   6.48619  21.12500
   0.47000   0.48840   6.48163  21.12500
   0.48000   0.55319   6.47642  21.12500
   0.49000   0.61792   6.47056  21.12500
   0.50000   0.68260   6.46406  21.12500
   0.51000   0.74720   6.45691  21.12500
   0.52000   0.81173   6.44912  21.12500
   0.53000   0.87618   6.44068  21.12500
   0.54000   0.94054   6.43159  21.12500
   0.55000   1.00481   6.42187  21.12500
   0.56000   1.06898   6.41150  21.12500
   0.57000   1.13304   6.40049  21.12500
   0.58000   1.19699   6.38884  21.12500
   0.59000   1.26081   6.37655  21.12500
   0.60000   1.32452   6.36362  21.12500
   0.61000   1.38808   6.35006  21.12500
   0.62000   1.45151   6.33586  21.12500
   0.63000   1.51480   6.32103  21.12500
   0.64000   1.57793   6.30556  21.12500
   0.65000   1.64091   6.28947  21.12500
   0.66000   1.70372   6.27275  21.12500
   0.67000   1.76636   6.25539  21.12500
   0.68000   1.82883   6.23742  21.12500
   0.69000   1.89111   6.21882  21.12500
   0.70000   1.95320   6.19960  21.12500
   0.71000   2.01510   6.17976  21.12500
   0.72000   2.07679   6.15930  21.12500
   0.73000   2.13828   6.13822  21.12500
   0.74000   2.19956   6.11653  21.12500
   0.75000   2.26061   6.09423  21.12500
   0.76000   2.32144   6.07132  21.12500
   0.77000   2.38203   6.04780  21.12500
   0.78000   2.44239   6.02368  21.12500
   0.79000   2.50251   5.99896  21.12500
   0.80000   2.56237   5.97363  21.12500
   0.81000   2.62198   5.94771  21.12500
   0.82000   2.68132   5.92119  21.12500
   0.83000   2.74040   5.89408  21.12500
   0.84000   2.79920   5.86638  21.12500
   0.85000   2.85772   5.83810  21.12500
   0.86000   2.91596   5.80923  21.12500
   0.87000   2.97391   5.77978  21.12500
   0.88000   3.03156   5.74975  21.12500
   0.89000   3.08890   5.71915  21.12500
   0.90000   3.14594   5.68798  21.12500
   0.91000   3.20266   5.65623  21.12500
   0.92000   3.25906   5.62393  21.12500
   0.93000   3.31513   5.59105  21.12500
   0.94000   3.37088   5.55762  21.12500
   0.95000   3.42629   5.52364  21.12500
   0.96000   3.48135   5.48910  21.12500
   0.97000   3.53607   5.45401  21.12500
   0.98000   3.59043   5.41838  21.12500
   0.99000   3.64443   5.38220  21.12500
   1.00000   3.69807   5.34549  21.12500
   1.01000   3.75134   5.30824  21.12500
   1.02000   3.80423   5.27047  21.12500
   1.03000   3.85675   5.23216  21.12500
   1.04000   3.90887   5.19333  21.12500
   1.05000   3.96061   5.15398  21.12500
   1.06000   4.01195   5.11412  21.12500
   1.07000   4.06289   5.07375  21.12500
   1.08000   4.11343   5.03286  21.12500
   1.09000   4.16355   4.99148  21.12500
   1.10000   4.21325   4.94960  21.12500
   1.11000   4.26254   4.90722  21.12500
   1.12000   4.31140   4.86435  21.12500
   1.13000   4.35982   4.82099  21.12500
   1.14000   4.40781   4.77715  21.12500
   1.15000   4.45536   4.73283  21.12500
   1.16000   4.50247   4.68805  21.12500
   1.17000   4.54912   4.64279  21.12500
   1.18000   4.59532   4.59706  21.12500
   1.19000   4.64106   4.55088  21.12500
   1.20000   4.68634   4.50424  21.12500
   1.21000   4.73115   4.45716  21.12500
   1.22000   4.77548   4.40962  21.12500
   1.23000   4.81934   4.36165  21.12500
   1.24000   4.86271   4.31324  21.12500
   1.25000   4.90560   4.26440  21.12500
   1.26000   4.94800   4.21513  21.12500
   1.27000   4.98990   4.16544  21.12500
   1.28000   5.03131   4.11533  21.12500
   1.29000   5.07221   4.06481  21.12500
   1.30000   5.11260   4.01389  21.12500
   1.31000   5.15248   3.96256  21.12500
   1.32000   5.19185   3.91084  21.12500
   1.33000   5.23070   3.85873  21.12500
   1.34000   5.26903   3.80623  21.12500
   1.35000   5.30682   3.75335  21.12500
   1.36000   5.34409   3.70009  21.12500
   1.37000   5.38082   3.64647  21.12500
   1.38000   5.41702   3.59248  21.12500
   1.39000   5.45267   3.53813  21.12500
   1.40000   5.48778   3.48343  21.12500
   1.41000   5.52234   3.42838  21.12500
   1.42000   5.55635   3.37298  21.12500
   1.43000   5.58980   3.31725  21.12500
   1.44000   5.62269   3.26119  21.12500
   1.45000   5.65502   3.20480  21.12500
   1.46000   5.68679   3.14809  21.12500
   1.47000   5.71798   3.09107  21.12500
   1.48000   5.74861   3.03373  21.12500
   1.49000   5.77866   2.97610  21.12500
   1.50000   5.80813   2.91816  21.12500
   1.51000   5.83702   2.85993  21.12500
   1.52000   5.86532   2.80142  21.12500
   1.53000   5.89305   2.74263  21.12500
   1.54000   5.92018   2.68356  21.12500
   1.55000   5.94672   2.62423  21.12500
   1.56000   5.97266   2.56463  21.12500
   1.57000   5.99801   2.50478  21.12500
   1.58000   6.02275   2.44467  21.12500
   1.59000   6.04690   2.38432  21.12500
   1.60000   6.07044   2.32374  21.12500
   1.61000   6.09337   2.26292  21.12500
   1.62000   6.11570   2.20187  21.12500
   1.63000   6.13741   2.14061  21.12500
   1.64000   6.15851   2.07913  21.12500
   1.65000   6.17899   2.01744  21.12500
   1.66000   6.19886   1.95555  21.12500
   1.67000   6.21810   1.89346  21.12500
   1.68000   6.23673   1.83119  21.12500
   1.69000   6.25473   1.76873  21.12500
   1.70000   6.27210   1.70610  21.12500
   1.71000   6.28885   1.64329  21.12500
   1.72000   6.30497   1.58032  21.12500
   1.73000   6.32045   1.51719  21.12500
   1.74000   6.33531   1.45391  21.12500
   1.75000   6.34953   1.39049  21.12500
   1.76000   6.36312   1.32693  21.12500
   1.77000   6.37607   1.26323  21.12500
   1.78000   6.38838   1.19941  21.12500
   1.79000   6.40006   1.13546  21.12500
   1.80000   6.41109   1.07141  21.12500
   1.81000   6.42148   1.00724  21.12500
   1.82000   6.43124   0.94298  21.12500
   1.83000   6.44034   0.87862  21.12500
   1.84000   6.44881   0.81417  21.12500
   1.85000   6.45663   0.74965  21.12500
   1.86000   6.46380   0.68504  21.12500
   1.87000   6.47033   0.62037  21.12500
   1.88000   6.47621   0.55564  21.12500
   1.89000   6.48144   0.49085  21.12500
   1.90000   6.48602   0.42601  21.12500
   1.91000   6.48996   0.36113  21.12500
   1.92000   6.49325   0.29622  21.12500
   1.93000   6.49588   0.23127  21.12500
   1.94000   6.49787   0.16630  21.12500
   1.95000   6.49921   0.10131  21.12500
   1.96000   6.49990   0.03632  21.12500
   1.97000   6.49994  -0.02868  21.12500
   1.98000   6.49932  -0.09368  21.12500
   1.99000   6.49806  -0.15867  21.12500
   2.00000   6.49615  -0.22364  21.12500
   2.01000   6.49359  -0.28859  21.12500
   2.02000   6.49038  -0.35351  21.12500
   2.03000   6.48652  -0.41839  21.12500
   2.04000   6.48201  -0.48324  21.12500
   2.05000   6.47686  -0.54803  21.12500
   2.06000   6.47105  -0.61277  21.12500
   2.07000   6.46460  -0.67745  21.12500
   2.08000   6.45750  -0.74206  21.12500
   2.09000   6.44976  -0.80660  21.12500
   2.10000   6.44137  -0.87105  21.12500
   2.11000   6.43234  -0.93542  21.12500
   2.12000   6.42266  -0.99970  21.12500
   2.13000   6.41235  -1.06387  21.12500
   2.14000   6.40139  -1.12794  21.12500
   2.15000   6.38979  -1.19190  21.12500
   2.16000   6.37755  -1.25574  21.12500
   2.17000   6.36467  -1.31945  21.12500
   2.18000   6.35116  -1.38303  21.12500
   2.19000   6.33701  -1.44647  21.12500
   2.20000   6.32223  -1.50977  21.12500
   2.21000   6.30682  -1.57291  21.12500
   2.22000   6.29077  -1.63590  21.12500
   2.23000   6.27410  -1.69872  21.12500
   2.24000   6.25680  -1.76138  21.12500
   2.25000   6.23887  -1.82386  21.12500
   2.26000   6.22032  -1.88615  21.12500
   2.27000   6.20115  -1.94826  21.12500
   2.28000   6.18136  -2.01018  21.12500
   2.29000   6.16095  -2.07189  21.12500
   2.30000   6.13992  -2.13339  21.12500
   2.31000   6.11828  -2.19468  21.12500
   2.32000   6.09603  -2.25576  21.12500
   2.33000   6.07317  -2.31660  21.12500
   2.34000   6.04970  -2.37722  21.12500
   2.35000   6.02562  -2.43759  21.12500
   2.36000   6.00095  -2.49773  21.12500
   2.37000   5.97567  -2.55761  21.12500
   2.38000   5.94979  -2.61724  21.12500
   2.39000   5.92333  -2.67661  21.12500
   2.40000   5.89626  -2.73570  21.12500
   2.41000   5.86861  -2.79453  21.12500
   2.42000   5.84037  -2.85307  21.12500
   2.43000   5.81155  -2.91133  21.12500
   2.44000   5.78215  -2.96930  21.12500
   2.45000   5.75217  -3.02698  21.12500
   2.46000   5.72161  -3.08434  21.12500
   2.47000   5.69048  -3.14141  21.12500
   2.48000   5.65878  -3.19815  21.12500
   2.49000   5.62652  -3.25458  21.12500
   2.50000   5.59369  -3.31068  21.12500
   2.51000   5.56031  -3.36645  21.12500
   2.52000   5.52636  -3.42189  21.12500
   2.53000   5.49187  -3.47698  21.12500
   2.54000   5.45683  -3.53172  21.12500
   2.55000   5.42124  -3.58611  21.12500
   2.56000   5.38510  -3.64014  21.12500
   2.57000   5.34843  -3.69381  21.12500
   2.58000   5.31123  -3.74711  21.12500
   2.59000   5.27349  -3.80003  21.12500
   2.60000   5.23523  -3.85258  21.12500
   2.61000   5.19644  -3.90474  21.12500
   2.62000   5.15714  -3.95651  21.12500
   2.63000   5.11731  -4.00788  21.12500
   2.64000   5.07698  -4.05885  21.12500
   2.65000   5.03614  -4.10942  21.12500
   2.66000   4.99479  -4.15957  21.12500
   2.67000   4.95295  -4.20931  21.12500
   2.68000   4.91061  -4.25863  21.12500
   2.69000   4.86778  -4.30752  21.12500
   2.70000   4.82446  -4.35598  21.12500
   2.71000   4.78066  -4.40401  21.12500
   2.72000   4.73638  -4.45159  21.12500
   2.73000   4.69163  -4.49873  21.12500
   2.74000   4.64641  -4.54543  21.12500
   2.75000   4.60072  -4.59166  21.12500
   2.76000   4.55458  -4.63744  21.12500
   2.77000   4.50797  -4.68275  21.12500
   2.78000   4.46092  -4.72760  21.12500
   2.79000   4.41342  -4.77197  21.12500
   2.80000   4.36549  -4.81586  21.12500
   2.81000   4.31711  -4.85928  21.12500
   2.82000   4.26830  -4.90220  21.12500
   2.83000   4.21907  -4.94464  21.12500
   2.84000   4.16941  -4.98658  21.12500
   2.85000   4.11934  -5.02803  21.12500
   2.86000   4.06885  -5.06897  21.12500
   2.87000   4.01796  -5.10940  21.12500
   2.88000   3.96666  -5.14933  21.12500
   2.89000   3.91497  -5.18874  21.12500
   2.90000   3.86289  -5.22763  21.12500
   2.91000   3.81042  -5.26599  21.12500
   2.92000   3.75757  -5.30383  21.12500
   2.93000   3.70435  -5.34114  21.12500
   2.94000   3.65075  -5.37792  21.12500
   2.95000   3.59679  -5.41416  21.12500
   2.96000   3.54247  -5.44985  21.12500
   2.97000   3.48780  -5.48500  21.12500
   2.98000   3.43277  -5.51961  21.12500
   2.99000   3.37741  -5.55366  21.12500
   3.00000   3.32170  -5.58715  21.12500
   3.01000   3.26566  -5.62009  21.12500
   3.02000   3.20930  -5.65247  21.12500
   3.03000   3.15262  -5.68428  21.12500
   3.04000   3.09562  -5.71552  21.12500
   3.05000   3.03831  -5.74619  21.12500
   3.06000   2.98070  -5.77628  21.12500
   3.07000   2.92279  -5.80580  21.12500
   3.08000   2.86458  -5.83474  21.12500
   3.09000   2.80609  -5.86309  21.12500
   3.10000   2.74732  -5.89086  21.12500
   3.11000   2.68828  -5.91804  21.12500
   3.12000   2.62896  -5.94462  21.12500
   3.13000   2.56939  -5.97062  21.12500
   3.14000   2.50955  -5.99601  21.12500
   3.15000   2.44947  -6.02081  21.12500
   3.16000   2.38914  -6.04500  21.12500
   3.17000   2.32857  -6.06859  21.12500
   3.18000   2.26777  -6.09157  21.12500
   3.19000   2.20674  -6.11394  21.12500
   3.20000   2.14549  -6.13570  21.12500
   3.21000   2.08403  -6.15685  21.12500
   3.22000   2.02236  -6.17738  21.12500
   3.23000   1.96048  -6.19730  21.12500
   3.24000   1.89841  -6.21659  21.12500
   3.25000   1.83615  -6.23527  21.12500
   3.26000   1.77371  -6.25332  21.12500
   3.27000   1.71109  -6.27074  21.12500
   3.28000   1.64830  -6.28754  21.12500
   3.29000   1.58534  -6.30370  21.12500
   3.30000   1.52223  -6.31924  21.12500
   3.31000   1.45896  -6.33415  21.12500
   3.32000   1.39554  -6.34842  21.12500
   3.33000   1.33199  -6.36206  21.12500
   3.34000   1.26831  -6.37506  21.12500
   3.35000   1.20449  -6.38742  21.12500
   3.36000   1.14056  -6.39915  21.12500
   3.37000   1.07651  -6.41024  21.12500
   3.38000   1.01236  -6.42068  21.12500
   3.39000   0.94810  -6.43048  21.12500
   3.40000   0.88375  -6.43964  21.12500
   3.41000   0.81931  -6.44816  21.12500
   3.42000   0.75479  -6.45603  21.12500
   3.43000   0.69019  -6.46325  21.12500
   3.44000   0.62553  -6.46983  21.12500
   3.45000   0.56080  -6.47576  21.12500
   3.46000   0.49601  -6.48105  21.12500
   3.47000   0.43118  -6.48568  21.12500
   3.48000   0.36630  -6.48967  21.12500
   3.49000   0.30139  -6.49301  21.12500
   3.50000   0.23644  -6.49570  21.12500
   3.51000   0.17148  -6.49774  21.12500
   3.52000   0.10649  -6.49913  21.12500
   3.53000   0.04149  -6.49987  21.12500
   3.54000  -0.02350  -6.49996  21.12500
   3.55000  -0.08850  -6.49940  21.12500
   3.56000  -0.15349  -6.49819  21.12500
   3.57000  -0.21846  -6.49633  21.12500
   3.58000  -0.28342  -6.49382  21.12500
   3.59000  -0.34834  -6.49066  21.12500
   3.60000  -0.41323  -6.48685  21.12500
   3.61000  -0.47807  -6.48240  21.12500
   3.62000  -0.54287  -6.47729  21.12500
   3.63000  -0.60762  -6.47154  21.12500
   3.64000  -0.67230  -6.46514  21.12500
   3.65000  -0.73692  -6.45809  21.12500
   3.66000  -0.80146  -6.45040  21.12500
   3.67000  -0.86592  -6.44206  21.12500
   3.68000  -0.93030  -6.43308  21.12500
   3.69000  -0.99458  -6.42346  21.12500
   3.70000  -1.05877  -6.41319  21.12500
   3.71000  -1.12284  -6.40228  21.12500
   3.72000  -1.18681  -6.39073  21.12500
   3.73000  -1.25066  -6.37855  21.12500
   3.74000  -1.31438  -6.36572  21.12500
   3.75000  -1.37797  -6.35226  21.12500
   3.76000  -1.44142  -6.33816  21.12500
   3.77000  -1.50473  -6.32343  21.12500
   3.78000  -1.56789  -6.30807  21.12500
   3.79000  -1.63089  -6.29207  21.12500
   3.80000  -1.69373  -6.27545  21.12500
   3.81000  -1.75640  -6.25820  21.12500
   3.82000  -1.81889  -6.24032  21.12500
   3.83000  -1.88120  -6.22182  21.12500
   3.84000  -1.94332  -6.20270  21.12500
   3.85000  -2.00525  -6.18296  21.12500
   3.86000  -2.06698  -6.16260  21.12500
   3.87000  -2.12850  -6.14162  21.12500
   3.88000  -2.18981  -6.12003  21.12500
   3.89000  -2.25090  -6.09782  21.12500
   3.90000  -2.31177  -6.07501  21.12500
   3.91000  -2.37240  -6.05159  21.12500
   3.92000  -2.43280  -6.02756  21.12500
   3.93000  -2.49295  -6.00293  21.12500
   3.94000  -2.55285  -5.97770  21.12500
   3.95000  -2.61250  -5.95188  21.12500
   3.96000  -2.67189  -5.92545  21.12500
   3.97000  -2.73101  -5.89844  21.12500
   3.98000  -2.78985  -5.87084  21.12500
   3.99000  -2.84842  -5.84264  21.12500
   4.00000  -2.90671  -5.81387  21.12500
   4.01000  -2.96470  -5.78451  21.12500
   4.02000  -3.02239  -5.75458  21.12500
   4.03000  -3.07979  -5.72406  21.12500
   4.04000  -3.13687  -5.69298  21.12500
   4.05000  -3.19365  -5.66133  21.12500
   4.06000  -3.25010  -5.62911  21.12500
   4.07000  -3.30623  -5.59633  21.12500
   4.08000  -3.36202  -5.56299  21.12500
   4.09000  -3.41748  -5.52909  21.12500
   4.10000  -3.47260  -5.49464  21.12500
   4.11000  -3.52737  -5.45964  21.12500
   4.12000  -3.58179  -5.42409  21.12500
   4.13000  -3.63585  -5.38800  21.12500
   4.14000  -3.68955  -5.35137  21.12500
   4.15000  -3.74288  -5.31421  21.12500
   4.16000  -3.79583  -5.27652  21.12500
   4.17000  -3.84841  -5.23830  21.12500
   4.18000  -3.90060  -5.19955  21.12500
   4.19000  -3.95240  -5.16029  21.12500
   4.20000  -4.00380  -5.12050  21.12500
   4.21000  -4.05481  -5.08021  21.12500
   4.22000  -4.10540  -5.03941  21.12500
   4.23000  -4.15559  -4.99810  21.12500
   4.24000  -4.20537  -4.95630  21.12500
   4.25000  -4.25472  -4.91400  21.12500
   4.26000  -4.30364  -4.87121  21.12500
   4.27000  -4.35214  -4.82793  21.12500
   4.28000  -4.40020  -4.78417  21.12500
   4.29000  -4.44782  -4.73992  21.12500
   4.30000  -4.49500  -4.69521  21.12500
   4.31000  -4.54172  -4.65003  21.12500
   4.32000  -4.58800  -4.60438  21.12500
   4.33000  -4.63381  -4.55827  21.12500
   4.34000  -4.67916  -4.51170  21.12500
   4.35000  -4.72404  -4.46469  21.12500
   4.36000  -4.76845  -4.41722  21.12500
   4.37000  -4.81239  -4.36932  21.12500
   4.38000  -4.85584  -4.32098  21.12500
   4.39000  -4.89880  -4.27220  21.12500
   4.40000  -4.94128  -4.22300  21.12500
   4.41000  -4.98326  -4.17338  21.12500
   4.42000  -5.02475  -4.12334  21.12500
   4.43000  -5.06573  -4.07289  21.12500
   4.44000  -5.10620  -4.02203  21.12500
   4.45000  -5.14617  -3.97076  21.12500
   4.46000  -5.18562  -3.91910  21.12500
   4.47000  -5.22455  -3.86705  21.12500
   4.48000  -5.26296  -3.81462  21.12500
   4.49000  -5.30084  -3.76180  21.12500
   4.50000  -5.33819  -3.70860  21.12500
   4.51000  -5.37501  -3.65503  21.12500
   4.52000  -5.41129  -3.60110  21.12500
   4.53000  -5.44703  -3.54681  21.12500
   4.54000  -5.48223  -3.49216  21.12500
   4.55000  -5.51687  -3.43717  21.12500
   4.56000  -5.55097  -3.38183  21.12500
   4.57000  -5.58451  -3.32615  21.12500
   4.58000  -5.61749  -3.27014  21.12500
   4.59000  -5.64991  -3.21380  21.12500
   4.60000  -5.68176  -3.15714  21.12500
   4.61000  -5.71305  -3.10017  21.12500
   4.62000  -5.74377  -3.04288  21.12500
   4.63000  -5.77391  -2.98530  21.12500
   4.64000  -5.80347  -2.92741  21.12500
   4.65000  -5.83246  -2.86923  21.12500
   4.66000  -5.86086  -2.81076  21.12500
   4.67000  -5.88867  -2.75201  21.12500
   4.68000  -5.91589  -2.69299  21.12500
   4.69000  -5.94253  -2.63370  21.12500
   4.70000  -5.96857  -2.57414  21.12500
   4.71000  -5.99401  -2.51433  21.12500
   4.72000  -6.01885  -2.45426  21.12500
   4.73000  -6.04309  -2.39395  21.12500
   4.74000  -6.06673  -2.33340  21.12500
   4.75000  -6.08976  -2.27262  21.12500
   4.76000  -6.11218  -2.21161  21.12500
   4.77000  -6.13399  -2.15038  21.12500
   4.78000  -6.15519  -2.08893  21.12500
   4.79000  -6.17577  -2.02728  21.12500
   4.80000  -6.19573  -1.96542  21.12500
   4.81000  -6.21508  -1.90336  21.12500
   4.82000  -6.23380  -1.84112  21.12500
   4.83000  -6.25190  -1.77869  21.12500
   4.84000  -6.26937  -1.71608  21.12500
   4.85000  -6.28622  -1.65330  21.12500
   4.86000  -6.30244  -1.59036  21.12500
   4.87000  -6.31803  -1.52726  21.12500
   4.88000  -6.33298  -1.46400  21.12500
   4.89000  -6.34731  -1.40060  21.12500
   4.90000  -6.36100  -1.33706  21.12500
   4.91000  -6.37405  -1.27338  21.12500
   4.92000  -6.38646  -1.20958  21.12500
   4.93000  -6.39824  -1.14566  21.12500
   4.94000  -6.40938  -1.08162  21.12500
   4.95000  -6.41987  -1.01747  21.12500
   4.96000  -6.42973  -0.95322  21.12500
   4.97000  -6.43894  -0.88888  21.12500
   4.98000  -6.44750  -0.82444  21.12500
   4.99000  -6.45542  -0.75993  21.12500
   5.00000  -6.46270  -0.69534  21.12500
   5.01000  -6.46933  -0.63068  21.12500
   5.02000  -6.47531  -0.56595  21.12500
   5.03000  -6.48065  -0.50117  21.12500
   5.04000  -6.48534  -0.43634  21.12500
   5.05000  -6.48938  -0.37147  21.12500
   5.06000  -6.49277  -0.30656  21.12500
   5.07000  -6.49551  -0.24162  21.12500
   5.08000  -6.49760  -0.17665  21.12500
   5.09000  -6.49904  -0.11167  21.12500
   5.10000  -6.49983  -0.04667  21.12500
   5.11000  -6.49997   0.01833  21.12500
   5.12000  -6.49947   0.08333  21.12500
   5.13000  -6.49831   0.14832  21.12500
   5.14000  -6.49650   0.21329  21.12500
   5.15000  -6.49404   0.27824  21.12500
   5.16000  -6.49093   0.34317  21.12500
   5.17000  -6.48718   0.40806  21.12500
   5.18000  -6.48277   0.47291  21.12500
   5.19000  -6.47772   0.53771  21.12500
   5.20000  -6.47202   0.60246  21.12500
   5.21000  -6.46567   0.66715  21.12500
   5.22000  -6.45868   0.73177  21.12500
   5.23000  -6.45104   0.79632  21.12500
   5.24000  -6.44275   0.86079  21.12500
   5.25000  -6.43382   0.92518  21.12500
   5.26000  -6.42425   0.98947  21.12500
   5.27000  -6.41403   1.05366  21.12500
   5.28000  -6.40317   1.11775  21.12500
   5.29000  -6.39168   1.18172  21.12500
   5.30000  -6.37954   1.24558  21.12500
   5.31000  -6.36677   1.30931  21.12500
   5.32000  -6.35335   1.37291  21.12500
   5.33000  -6.33931   1.43637  21.12500
   5.34000  -6.32463   1.49969  21.12500
   5.35000  -6.30931   1.56286  21.12500
   5.36000  -6.29337   1.62588  21.12500
   5.37000  -6.27680   1.68873  21.12500
   5.38000  -6.25960   1.75141  21.12500
   5.39000  -6.24177   1.81392  21.12500
   5.40000  -6.22332   1.87625  21.12500
   5.41000  -6.20425   1.93838  21.12500
   5.42000  -6.18455   2.00033  21.12500
   5.43000  -6.16424   2.06207  21.12500
   5.44000  -6.14331   2.12361  21.12500
   5.45000  -6.12177   2.18494  21.12500
   5.46000  -6.09961   2.24604  21.12500
   5.47000  -6.07685   2.30693  21.12500
   5.48000  -6.05348   2.36758  21.12500
   5.49000  -6.02950   2.42799  21.12500
   5.50000  -6.00492   2.48817  21.12500
   5.51000  -5.97974   2.54809  21.12500
   5.52000  -5.95396   2.60776  21.12500
   5.53000  -5.92758   2.66717  21.12500
   5.54000  -5.90061   2.72631  21.12500
   5.55000  -5.87306   2.78518  21.12500
   5.56000  -5.84491   2.84377  21.12500
   5.57000  -5.81618   2.90207  21.12500
   5.58000  -5.78687   2.96009  21.12500
   5.59000  -5.75698   3.01781  21.12500
   5.60000  -5.72651   3.07523  21.12500
   5.61000  -5.69548   3.13234  21.12500
   5.62000  -5.66387   3.18914  21.12500
   5.63000  -5.63170   3.24561  21.12500
   5.64000  -5.59896   3.30177  21.12500
   5.65000  -5.56566   3.35759  21.12500
   5.66000  -5.53181   3.41308  21.12500
   5.67000  -5.49740   3.46823  21.12500
   5.68000  -5.46244   3.52303  21.12500
   5.69000  -5.42694   3.57747  21.12500
   5.70000  -5.39090   3.63156  21.12500
   5.71000  -5.35431   3.68529  21.12500
   5.72000  -5.31719   3.73865  21.12500
   5.73000  -5.27954   3.79163  21.12500
   5.74000  -5.24136   3.84424  21.12500
   5.75000  -5.20266   3.89646  21.12500
   5.76000  -5.16343   3.94829  21.12500
   5.77000  -5.12369   3.99972  21.12500
   5.78000  -5.08344   4.05076  21.12500
   5.79000  -5.04268   4.10139  21.12500
   5.80000  -5.00141   4.15161  21.12500
   5.81000  -4.95965   4.20142  21.12500
   5.82000  -4.91739   4.25080  21.12500
   5.83000  -4.87463   4.29976  21.12500
   5.84000  -4.83139   4.34829  21.12500
   5.85000  -4.78767   4.39639  21.12500
   5.86000  -4.74347   4.44405  21.12500
   5.87000  -4.69879   4.49126  21.12500
   5.88000  -4.65364   4.53802  21.12500
   5.89000  -4.60803   4.58433  21.12500
   5.90000  -4.56196   4.63018  21.12500
   5.91000  -4.51543   4.67557  21.12500
   5.92000  -4.46845   4.72049  21.12500
   5.93000  -4.42102   4.76493  21.12500
   5.94000  -4.37315   4.80890  21.12500
   5.95000  -4.32484   4.85239  21.12500
   5.96000  -4.27610   4.89540  21.12500
   5.97000  -4.22694   4.93792  21.12500
   5.98000  -4.17735   4.97994  21.12500
   5.99000  -4.12734   5.02146  21.12500
   6.00000  -4.07692   5.06248  21.12500
   6.01000  -4.02609   5.10300  21.12500
   6.02000  -3.97486   5.14300  21.12500
   6.03000  -3.92323   5.18249  21.12500
   6.04000  -3.87121   5.22147  21.12500
   6.05000  -3.81881   5.25992  21.12500
   6.06000  -3.76602   5.29784  21.12500
   6.07000  -3.71285   5.33524  21.12500
   6.08000  -3.65931   5.37210  21.12500
   6.09000  -3.60541   5.40842  21.12500
   6.10000  -3.55115   5.44420  21.12500
   6.11000  -3.49653   5.47944  21.12500
   6.12000  -3.44156   5.51413  21.12500
   6.13000  -3.38625   5.54827  21.12500
   6.14000  -3.33060   5.58186  21.12500
   6.15000  -3.27461   5.61488  21.12500
   6.16000  -3.21830   5.64735  21.12500
   6.17000  -3.16167   5.67925  21.12500
   6.18000  -3.10472   5.71058  21.12500
   6.19000  -3.04746   5.74134  21.12500
   6.20000  -2.98989   5.77153  21.12500
   6.21000  -2.93203   5.80114  21.12500
   6.22000  -2.87387   5.83017  21.12500
   6.23000  -2.81543   5.85861  21.12500
   6.24000  -2.75670   5.88648  21.12500
   6.25000  -2.69770   5.91375  21.12500
   6.26000  -2.63843   5.94043  21.12500
   6.27000  -2.57889   5.96652  21.12500
   6.28000  -2.51910   5.99201  21.12500
   6.29000  -2.45905   6.01690  21.12500
   6.30000  -2.39876   6.04119  21.12500
   6.31000  -2.33823   6.06487  21.12500
   6.32000  -2.27747   6.08795  21.12500
   6.33000  -2.21648   6.11042  21.12500
   6.34000  -2.15526   6.13228  21.12500
   6.35000  -2.09383   6.15352  21.12500
   6.36000  -2.03219   6.17415  21.12500
   6.37000  -1.97035   6.19417  21.12500
   6.38000  -1.90831   6.21356  21.12500
   6.39000  -1.84608   6.23233  21.12500
   6.40000  -1.78367   6.25048  21.12500
   6.41000  -1.72108   6.26801  21.12500
   6.42000  -1.65831   6.28490  21.12500
   6.43000  -1.59538   6.30117  21.12500
   6.44000  -1.53229   6.31681  21.12500
   6.45000  -1.46904   6.33182  21.12500
   6.46000  -1.40565   6.34619  21.12500
   6.47000  -1.34212   6.35993  21.12500
   6.48000  -1.27846   6.37303  21.12500
   6.49000  -1.21466   6.38550  21.12500
   6.50000  -1.15075   6.39733  21.12500
   6.51000  -1.08672   6.40851  21.12500
   6.52000  -1.02258   6.41906  21.12500
   6.53000  -0.95834   6.42896  21.12500
   6.54000  -0.89400   6.43823  21.12500
   6.55000  -0.82958   6.44684  21.12500
   6.56000  -0.76507   6.45482  21.12500
   6.57000  -0.70048   6.46215  21.12500
   6.58000  -0.63583   6.46883  21.12500
   6.59000  -0.57111   6.47486  21.12500
   6.60000  -0.50633   6.48025  21.12500
   6.61000  -0.44151   6.48499  21.12500
   6.62000  -0.37664   6.48908  21.12500
   6.63000  -0.31173   6.49252  21.12500
   6.64000  -0.24679   6.49531  21.12500
   6.65000  -0.18182   6.49746  21.12500
   6.66000  -0.11684   6.49895  21.12500
   6.67000  -0.05185   6.49979  21.12500
   6.68000   0.01315   6.49999  21.12500
   6.69000   0.07815   6.49953  21.12500
   6.70000   0.14314   6.49842  21.12500
   6.71000   0.20812   6.49667  21.12500
   6.72000   0.27307   6.49426  21.12500
   6.73000   0.33800   6.49121  21.12500
   6.74000   0.40289   6.48750  21.12500
   6.75000   0.46775   6.48315  21.12500
   6.76000   0.53255   6.47815  21.12500
   6.77000   0.59731   6.47250  21.12500
   6.78000   0.66200   6.46620  21.12500
   6.79000   0.72663   6.45926  21.12500
   6.80000   0.79119   6.45167  21.12500
   6.81000   0.85566   6.44343  21.12500
   6.82000   0.92005   6.43456  21.12500
   6.83000   0.98435   6.42503  21.12500
   6.84000   1.04855   6.41487  21.12500
   6.85000   1.11265   6.40406  21.12500
   6.86000   1.17663   6.39262  21.12500
   6.87000   1.24050   6.38053  21.12500
   6.88000   1.30424   6.36781  21.12500
   6.89000   1.36785   6.35445  21.12500
   6.90000   1.43132   6.34045  21.12500
   6.91000   1.49466   6.32582  21.12500
   6.92000   1.55784   6.31056  21.12500
   6.93000   1.62087   6.29466  21.12500
   6.94000   1.68373   6.27814  21.12500
   6.95000   1.74643   6.26099  21.12500
   6.96000   1.80895   6.24321  21.12500
   6.97000   1.87129   6.22481  21.12500
   6.98000   1.93344   6.20579  21.12500
   6.99000   1.99540   6.18614  21.12500
   7.00000   2.05716   6.16588  21.12500
   7.01000   2.11872   6.14500  21.12500
   7.02000   2.18006   6.12351  21.12500
   7.03000   2.24119   6.10140  21.12500
   7.04000   2.30209   6.07868  21.12500
   7.05000   2.36276   6.05536  21.12500
   7.06000   2.42319   6.03143  21.12500
   7.07000   2.48338   6.00690  21.12500
   7.08000   2.54333   5.98176  21.12500
   7.09000   2.60302   5.95603  21.12500
   7.10000   2.66245   5.92970  21.12500
   7.11000   2.72161   5.90278  21.12500
   7.12000   2.78050   5.87527  21.12500
   7.13000   2.83911   5.84717  21.12500
   7.14000   2.89744   5.81849  21.12500
   7.15000   2.95548   5.78923  21.12500
   7.16000   3.01322   5.75938  21.12500
   7.17000   3.07067   5.72896  21.12500
   7.18000   3.12780   5.69797  21.12500
   7.19000   3.18462   5.66641  21.12500
   7.20000   3.24113   5.63428  21.12500
   7.21000   3.29731   5.60159  21.12500
   7.22000   3.35316   5.56833  21.12500
   7.23000   3.40867   5.53452  21.12500
   7.24000   3.46385   5.50016  21.12500
   7.25000   3.51867   5.46525  21.12500
   7.26000   3.57315   5.42979  21.12500
   7.27000   3.62727   5.39379  21.12500
   7.28000   3.68102   5.35724  21.12500
   7.29000   3.73441   5.32017  21.12500
   7.30000   3.78743   5.28256  21.12500
   7.31000   3.84006   5.24442  21.12500
   7.32000   3.89231   5.20576  21.12500
   7.33000   3.94417   5.16657  21.12500
   7.34000   3.99564   5.12688  21.12500
   7.35000   4.04671   5.08666  21.12500
   7.36000   4.09737   5.04594  21.12500
   7.37000   4.14763   5.00472  21.12500
   7.38000   4.19747   4.96299  21.12500
   7.39000   4.24688   4.92077  21.12500
   7.40000   4.29588   4.87805  21.12500
   7.41000   4.34444   4.83485  21.12500
   7.42000   4.39257   4.79117  21.12500
   7.43000   4.44027   4.74700  21.12500
   7.44000   4.48751   4.70236  21.12500
   7.45000   4.53431   4.65725  21.12500
   7.46000   4.58066   4.61168  21.12500
   7.47000   4.62654   4.56564  21.12500
   7.48000   4.67197   4.51915  21.12500
   7.49000   4.71693   4.47220  21.12500
   7.50000   4.76141   4.42481  21.12500
   7.51000   4.80542   4.37698  21.12500
   7.52000   4.84895   4.32871  21.12500
   7.53000   4.89199   4.28000  21.12500
   7.54000   4.93455   4.23087  21.12500
   7.55000   4.97661   4.18131  21.12500
   7.56000   5.01817   4.13134  21.12500
   7.57000   5.05923   4.08095  21.12500
   7.58000   5.09979   4.03015  21.12500
   7.59000   5.13984   3.97896  21.12500
   7.60000   5.17937   3.92736  21.12500
   7.61000   5.21838   3.87537  21.12500
   7.62000   5.25687   3.82299  21.12500
   7.63000   5.29484   3.77023  21.12500
   7.64000   5.33228   3.71710  21.12500
   7.65000   5.36918   3.66359  21.12500
   7.66000   5.40555   3.60972  21.12500
   7.67000   5.44137   3.55548  21.12500
   7.68000   5.47666   3.50089  21.12500
   7.69000   5.51139   3.44595  21.12500
   7.70000   5.54557   3.39066  21.12500
   7.71000   5.57920   3.33504  21.12500
   7.72000   5.61227   3.27908  21.12500
   7.73000   5.64478   3.22280  21.12500
   7.74000   5.67673   3.16619  21.12500
   7.75000   5.70811   3.10926  21.12500
   7.76000   5.73891   3.05203  21.12500
   7.77000   5.76915   2.99449  21.12500
   7.78000   5.79880   2.93665  21.12500
   7.79000   5.82788   2.87851  21.12500
   7.80000   5.85637   2.82009  21.12500
   7.81000   5.88428   2.76139  21.12500
   7.82000   5.91160   2.70241  21.12500
   7.83000   5.93833   2.64316  21.12500
   7.84000   5.96446   2.58364  21.12500
   7.85000   5.99000   2.52387  21.12500
   7.86000   6.01494   2.46385  21.12500
   7.87000   6.03927   2.40357  21.12500
   7.88000   6.06301   2.34306  21.12500
   7.89000   6.08613   2.28232  21.12500
   7.90000   6.10865   2.22134  21.12500
   7.91000   6.13056   2.16015  21.12500
   7.92000   6.15186   2.09873  21.12500
   7.93000   6.17253   2.03711  21.12500
   7.94000   6.19260   1.97528  21.12500
   7.95000   6.21204   1.91326  21.12500
   7.96000   6.23086   1.85105  21.12500
   7.97000   6.24906   1.78865  21.12500
   7.98000   6.26663   1.72607  21.12500
   7.99000   6.28358   1.66331  21.12500
   8.00000   6.29990   1.60040  21.12500
   8.01000   6.31559   1.53732  21.12500
   8.02000   6.33065   1.47409  21.12500
   8.03000   6.34507   1.41071  21.12500
   8.04000   6.35886   1.34719  21.12500
   8.05000   6.37201   1.28353  21.12500
   8.06000   6.38453   1.21975  21.12500
   8.07000   6.39641   1.15584  21.12500
   8.08000   6.40765   1.09182  21.12500
   8.09000   6.41824   1.02769  21.12500
   8.10000   6.42820   0.96346  21.12500
   8.11000   6.43751   0.89913  21.12500
   8.12000   6.44618   0.83471  21.12500
   8.13000   6.45421   0.77021  21.12500
   8.14000   6.46159   0.70563  21.12500
   8.15000   6.46832   0.64098  21.12500
   8.16000   6.47440   0.57627  21.12500
   8.17000   6.47984   0.51149  21.12500
   8.18000   6.48463   0.44667  21.12500
   8.19000   6.48878   0.38180  21.12500
   8.20000   6.49227   0.31690  21.12500
   8.21000   6.49511   0.25196  21.12500
   8.22000   6.49731   0.18700  21.12500
   8.23000   6.49885   0.12202  21.12500
   8.24000   6.49975   0.05702  21.12500
   8.25000   6.50000  -0.00798  21.12500
   8.26000   6.49959  -0.07297  21.12500
   8.27000   6.49854  -0.13797  21.12500
   8.28000   6.49683  -0.20294  21.12500
   8.29000   6.49448  -0.26790  21.12500
   8.30000   6.49147  -0.33283  21.12500
   8.31000   6.48782  -0.39773  21.12500
   8.32000   6.48352  -0.46258  21.12500
   8.33000   6.47857  -0.52740  21.12500
   8.34000   6.47297  -0.59215  21.12500
   8.35000   6.46673  -0.65685  21.12500
   8.36000   6.45983  -0.72149  21.12500
   8.37000   6.45230  -0.78605  21.12500
   8.38000   6.44411  -0.85053  21.12500
   8.39000   6.43529  -0.91493  21.12500
   8.40000   6.42582  -0.97923  21.12500
   8.41000   6.41570  -1.04344  21.12500
   8.42000   6.40495  -1.10755  21.12500
   8.43000   6.39355  -1.17154  21.12500
   8.44000   6.38152  -1.23541  21.12500
   8.45000   6.36884  -1.29917  21.12500
   8.46000   6.35553  -1.36279  21.12500
   8.47000   6.34159  -1.42628  21.12500
   8.48000   6.32701  -1.48962  21.12500
   8.49000   6.31180  -1.55281  21.12500
   8.50000   6.29595  -1.61585  21.12500
   8.51000   6.27948  -1.67873  21.12500
   8.52000   6.26238  -1.74144  21.12500
   8.53000   6.24465  -1.80398  21.12500
   8.54000   6.22630  -1.86633  21.12500
   8.55000   6.20733  -1.92850  21.12500
   8.56000   6.18773  -1.99048  21.12500
   8.57000   6.16752  -2.05225  21.12500
   8.58000   6.14669  -2.11382  21.12500
   8.59000   6.12524  -2.17518  21.12500
   8.60000   6.10318  -2.23633  21.12500
   8.61000   6.08052  -2.29725  21.12500
   8.62000   6.05724  -2.35793  21.12500
   8.63000   6.03336  -2.41839  21.12500
   8.64000   6.00887  -2.47860  21.12500
   8.65000   5.98379  -2.53856  21.12500
   8.66000   5.95810  -2.59827  21.12500
   8.67000   5.93182  -2.65772  21.12500
   8.68000   5.90495  -2.71691  21.12500
   8.69000   5.87748  -2.77582  21.12500
   8.70000   5.84943  -2.83446  21.12500
   8.71000   5.82080  -2.89281  21.12500
   8.72000   5.79158  -2.95087  21.12500
   8.73000   5.76178  -3.00864  21.12500
   8.74000   5.73141  -3.06610  21.12500
   8.75000   5.70046  -3.12326  21.12500
   8.76000   5.66894  -3.18011  21.12500
   8.77000   5.63686  -3.23664  21.12500
   8.78000   5.60421  -3.29285  21.12500
   8.79000   5.57100  -3.34872  21.12500
   8.80000   5.53724  -3.40426  21.12500
   8.81000   5.50292  -3.45947  21.12500
   8.82000   5.46805  -3.51432  21.12500
   8.83000   5.43263  -3.56882  21.12500
   8.84000   5.39667  -3.62297  21.12500
   8.85000   5.36017  -3.67676  21.12500
   8.86000   5.32314  -3.73017  21.12500
   8.87000   5.28557  -3.78322  21.12500
   8.88000   5.24748  -3.83588  21.12500
   8.89000   5.20886  -3.88816  21.12500
   8.90000   5.16971  -3.94006  21.12500
   8.91000   5.13006  -3.99156  21.12500
   8.92000   5.08988  -4.04266  21.12500
   8.93000   5.04920  -4.09335  21.12500
   8.94000   5.00802  -4.14364  21.12500
   8.95000   4.96633  -4.19351  21.12500
   8.96000   4.92415  -4.24296  21.12500
   8.97000   4.88147  -4.29199  21.12500
   8.98000   4.83831  -4.34059  21.12500
   8.99000   4.79466  -4.38876  21.12500
   9.00000   4.75054  -4.43648  21.12500
   9.01000   4.70594  -4.48377  21.12500
   9.02000   4.66086  -4.53060  21.12500
   9.03000   4.61533  -4.57698  21.12500
   9.04000   4.56933  -4.62291  21.12500
   9.05000   4.52287  -4.66837  21.12500
   9.06000   4.47596  -4.71336  21.12500
   9.07000   4.42860  -4.75789  21.12500
   9.08000   4.38080  -4.80193  21.12500
   9.09000   4.33257  -4.84550  21.12500
   9.10000   4.28390  -4.88858  21.12500
   9.11000   4.23480  -4.93118  21.12500
   9.12000   4.18527  -4.97328  21.12500
   9.13000   4.13533  -5.01488  21.12500
   9.14000   4.08498  -5.05598  21.12500
   9.15000   4.03421  -5.09658  21.12500
   9.16000   3.98305  -5.13667  21.12500
   9.17000   3.93148  -5.17624  21.12500
   9.18000   3.87952  -5.21529  21.12500
   9.19000   3.82718  -5.25383  21.12500
   9.20000   3.77445  -5.29184  21.12500
   9.21000   3.72134  -5.32932  21.12500
   9.22000   3.66787  -5.36626  21.12500
   9.23000   3.61402  -5.40267  21.12500
   9.24000   3.55981  -5.43854  21.12500
   9.25000   3.50525  -5.47387  21.12500
   9.26000   3.45034  -5.50864  21.12500
   9.27000   3.39508  -5.54287  21.12500
   9.28000   3.33948  -5.57655  21.12500
   9.29000   3.28355  -5.60966  21.12500
   9.30000   3.22729  -5.64222  21.12500
   9.31000   3.17071  -5.67421  21.12500
   9.32000   3.11381  -5.70563  21.12500
   9.33000   3.05660  -5.73648  21.12500
   9.34000   2.99908  -5.76676  21.12500
   9.35000   2.94126  -5.79646  21.12500
   9.36000   2.88315  -5.82558  21.12500
   9.37000   2.82475  -5.85412  21.12500
   9.38000   2.76607  -5.88208  21.12500
   9.39000   2.70712  -5.90944  21.12500
   9.40000   2.64789  -5.93622  21.12500
   9.41000   2.58839  -5.96240  21.12500
   9.42000   2.52864  -5.98799  21.12500
   9.43000   2.46864  -6.01297  21.12500
   9.44000   2.40838  -6.03736  21.12500
   9.45000   2.34789  -6.06114  21.12500
   9.46000   2.28716  -6.08432  21.12500
   9.47000   2.22621  -6.10688  21.12500
   9.48000   2.16503  -6.12884  21.12500
   9.49000   2.10363  -6.15018  21.12500
   9.50000   2.04202  -6.17091  21.12500
   9.51000   1.98021  -6.19102  21.12500
   9.52000   1.91821  -6.21051  21.12500
   9.53000   1.85601  -6.22939  21.12500
   9.54000   1.79362  -6.24763  21.12500
   9.55000   1.73106  -6.26526  21.12500
   9.56000   1.66832  -6.28225  21.12500
   9.57000   1.60541  -6.29862  21.12500
   9.58000   1.54235  -6.31436  21.12500
   9.59000   1.47913  -6.32947  21.12500
   9.60000   1.41576  -6.34394  21.12500
   9.61000   1.35225  -6.35778  21.12500
   9.62000   1.28861  -6.37099  21.12500
   9.63000   1.22483  -6.38356  21.12500
   9.64000   1.16094  -6.39548  21.12500
   9.65000   1.09693  -6.40677  21.12500
   9.66000   1.03280  -6.41742  21.12500
   9.67000   0.96858  -6.42743  21.12500
   9.68000   0.90426  -6.43679  21.12500
   9.69000   0.83985  -6.44551  21.12500
   9.70000   0.77535  -6.45359  21.12500
   9.71000   0.71078  -6.46102  21.12500
   9.72000   0.64613  -6.46781  21.12500
   9.73000   0.58142  -6.47394  21.12500
   9.74000   0.51665  -6.47943  21.12500
   9.75000   0.45184  -6.48428  21.12500
   9.76000   0.38697  -6.48847  21.12500
   9.77000   0.32207  -6.49202  21.12500
   9.78000   0.25713  -6.49491  21.12500
   9.79000   0.19217  -6.49716  21.12500
   9.80000   0.12719  -6.49876  21.12500
   9.81000   0.06220  -6.49970  21.12500
   9.82000  -0.00280  -6.50000  21.12500
   9.83000  -0.06780  -6.49965  21.12500
   9.84000  -0.13279  -6.49864  21.12500
   9.85000  -0.19777  -6.49699  21.12500
   9.86000  -0.26273  -6.49469  21.12500
   9.87000  -0.32766  -6.49174  21.12500
   9.88000  -0.39256  -6.48814  21.12500
   9.89000  -0.45742  -6.48389  21.12500
   9.90000  -0.52224  -6.47899  21.12500
   9.91000  -0.58700  -6.47344  21.12500
   9.92000  -0.65170  -6.46725  21.12500
   9.93000  -0.71634  -6.46041  21.12500
   9.94000  -0.78091  -6.45292  21.12500
   9.95000  -0.84540  -6.44479  21.12500
   9.96000  -0.90980  -6.43601  21.12500
   9.97000  -0.97412  -6.42659  21.12500
   9.98000  -1.03833  -6.41653  21.12500
   9.99000  -1.10244  -6.40583  21.12500
  10.00000  -1.16645  -6.39448  21.12500
  10.01000  -1.23033  -6.38250  21.12500
  10.02000  -1.29409  -6.36988  21.12500
  10.03000  -1.35773  -6.35662  21.12500
  10.04000  -1.42122  -6.34272  21.12500
  10.05000  -1.48458  -6.32819  21.12500
  10.06000  -1.54779  -6.31303  21.12500
  10.07000  -1.61084  -6.29724  21.12500
  10.08000  -1.67373  -6.28081  21.12500
  10.09000  -1.73645  -6.26376  21.12500
  10.10000  -1.79900  -6.24609  21.12500
  10.11000  -1.86137  -6.22778  21.12500
  10.12000  -1.92356  -6.20886  21.12500
  10.13000  -1.98555  -6.18931  21.12500
  10.14000  -2.04734  -6.16915  21.12500
  10.15000  -2.10893  -6.14837  21.12500
  10.16000  -2.17031  -6.12697  21.12500
  10.17000  -2.23147  -6.10496  21.12500
  10.18000  -2.29240  -6.08234  21.12500
  10.19000  -2.35311  -6.05911  21.12500
  10.20000  -2.41358  -6.03528  21.12500
  10.21000  -2.47381  -6.01084  21.12500
  10.22000  -2.53380  -5.98581  21.12500
  10.23000  -2.59353  -5.96017  21.12500
  10.24000  -2.65300  -5.93394  21.12500
  10.25000  -2.71220  -5.90711  21.12500
  10.26000  -2.77114  -5.87969  21.12500
  10.27000  -2.82980  -5.85169  21.12500
  10.28000  -2.88817  -5.82310  21.12500
  10.29000  -2.94626  -5.79393  21.12500
  10.30000  -3.00405  -5.76417  21.12500
  10.31000  -3.06154  -5.73385  21.12500
  10.32000  -3.11872  -5.70294  21.12500
  10.33000  -3.17560  -5.67147  21.12500
  10.34000  -3.23215  -5.63943  21.12500
  10.35000  -3.28838  -5.60683  21.12500
  10.36000  -3.34428  -5.57367  21.12500
  10.37000  -3.39985  -5.53995  21.12500
  10.38000  -3.45508  -5.50567  21.12500
  10.39000  -3.50996  -5.47085  21.12500
  10.40000  -3.56450  -5.43547  21.12500
  10.41000  -3.61867  -5.39956  21.12500
  10.42000  -3.67249  -5.36310  21.12500
  10.43000  -3.72593  -5.32611  21.12500
  10.44000  -3.77901  -5.28858  21.12500
  10.45000  -3.83170  -5.25053  21.12500
  10.46000  -3.88402  -5.21195  21.12500
  10.47000  -3.93594  -5.17285  21.12500
  10.48000  -3.98747  -5.13323  21.12500
  10.49000  -4.03860  -5.09310  21.12500
  10.50000  -4.08933  -5.05246  21.12500
  10.51000  -4.13965  -5.01132  21.12500
  10.52000  -4.18956  -4.96967  21.12500
  10.53000  -4.23904  -4.92753  21.12500
  10.54000  -4.28810  -4.88489  21.12500
  10.55000  -4.33674  -4.84177  21.12500
  10.56000  -4.38494  -4.79816  21.12500
  10.57000  -4.43270  -4.75407  21.12500
  10.58000  -4.48002  -4.70951  21.12500
  10.59000  -4.52689  -4.66447  21.12500
  10.60000  -4.57331  -4.61897  21.12500
  10.61000  -4.61927  -4.57301  21.12500
  10.62000  -4.66476  -4.52659  21.12500
  10.63000  -4.70980  -4.47971  21.12500
  10.64000  -4.75436  -4.43239  21.12500
  10.65000  -4.79844  -4.38463  21.12500
  10.66000  -4.84205  -4.33642  21.12500
  10.67000  -4.88517  -4.28779  21.12500
  10.68000  -4.92780  -4.23872  21.12500
  10.69000  -4.96994  -4.18923  21.12500
  10.70000  -5.01159  -4.13932  21.12500
  10.71000  -5.05273  -4.08900  21.12500
  10.72000  -5.09336  -4.03827  21.12500
  10.73000  -5.13349  -3.98714  21.12500
  10.74000  -5.17311  -3.93560  21.12500
  10.75000  -5.21220  -3.88368  21.12500
  10.76000  -5.25078  -3.83136  21.12500
  10.77000  -5.28883  -3.77866  21.12500
  10.78000  -5.32635  -3.72559  21.12500
  10.79000  -5.36334  -3.67214  21.12500
  10.80000  -5.39979  -3.61832  21.12500
  10.81000  -5.43570  -3.56414  21.12500
  10.82000  -5.47107  -3.50961  21.12500
  10.83000  -5.50590  -3.45472  21.12500
  10.84000  -5.54017  -3.39949  21.12500
  10.85000  -5.57388  -3.34392  21.12500
  10.86000  -5.60704  -3.28802  21.12500
  10.87000  -5.63964  -3.23178  21.12500
  10.88000  -5.67168  -3.17523  21.12500
  10.89000  -5.70315  -3.11835  21.12500
  10.90000  -5.73404  -3.06117  21.12500
  10.91000  -5.76437  -3.00367  21.12500
  10.92000  -5.79412  -2.94588  21.12500
  10.93000  -5.82329  -2.88779  21.12500
  10.94000  -5.85187  -2.82942  21.12500
  10.95000  -5.87987  -2.77076  21.12500
  10.96000  -5.90729  -2.71182  21.12500
  10.97000  -5.93411  -2.65261  21.12500
  10.98000  -5.96034  -2.59314  21.12500
  10.99000  -5.98597  -2.53341  21.12500
  11.00000  -6.01100  -2.47342  21.12500
  11.01000  -6.03544  -2.41319  21.12500
  11.02000  -6.05927  -2.35272  21.12500
  11.03000  -6.08249  -2.29201  21.12500
  11.04000  -6.10511  -2.23107  21.12500
  11.05000  -6.12711  -2.16991  21.12500
  11.06000  -6.14850  -2.10853  21.12500
  11.07000  -6.16928  -2.04694  21.12500
  11.08000  -6.18944  -1.98514  21.12500
  11.09000  -6.20898  -1.92315  21.12500
  11.10000  -6.22791  -1.86097  21.12500
  11.11000  -6.24620  -1.79860  21.12500
  11.12000  -6.26388  -1.73604  21.12500
  11.13000  -6.28092  -1.67332  21.12500
  11.14000  -6.29734  -1.61043  21.12500
  11.15000  -6.31313  -1.54738  21.12500
  11.16000  -6.32829  -1.48417  21.12500
  11.17000  -6.34281  -1.42081  21.12500
  11.18000  -6.35671  -1.35731  21.12500
  11.19000  -6.36996  -1.29368  21.12500
  11.20000  -6.38258  -1.22992  21.12500
  11.21000  -6.39456  -1.16603  21.12500
  11.22000  -6.40590  -1.10203  21.12500
  11.23000  -6.41660  -1.03791  21.12500
  11.24000  -6.42666  -0.97370  21.12500
  11.25000  -6.43607  -0.90938  21.12500
  11.26000  -6.44484  -0.84498  21.12500
  11.27000  -6.45297  -0.78049  21.12500
  11.28000  -6.46045  -0.71592  21.12500
  11.29000  -6.46729  -0.65128  21.12500
  11.30000  -6.47348  -0.58658  21.12500
  11.31000  -6.47902  -0.52181  21.12500
  11.32000  -6.48391  -0.45700  21.12500
  11.33000  -6.48816  -0.39214  21.12500
  11.34000  -6.49176  -0.32724  21.12500
  11.35000  -6.49471  -0.26231  21.12500
  11.36000  -6.49700  -0.19735  21.12500
  11.37000  -6.49865  -0.13237  21.12500
  11.38000  -6.49965  -0.06738  21.12500
  11.39000  -6.50000  -0.00238  21.12500
  11.40000  -6.49970   0.06262  21.12500
  11.41000  -6.49875   0.12761  21.12500
  11.42000  -6.49715   0.19259  21.12500
  11.43000  -6.49490   0.25756  21.12500
  11.44000  -6.49200   0.32249  21.12500
  11.45000  -6.48845   0.38739  21.12500
  11.46000  -6.48425   0.45226  21.12500
  11.47000  -6.47940   0.51708  21.12500
  11.48000  -6.47391   0.58184  21.12500
  11.49000  -6.46776   0.64655  21.12500
  11.50000  -6.46098   0.71120  21.12500
  11.51000  -6.45354   0.77577  21.12500
  11.52000  -6.44546   0.84027  21.12500
  11.53000  -6.43674   0.90468  21.12500
  11.54000  -6.42737   0.96900  21.12500
  11.55000  -6.41736   1.03322  21.12500
  11.56000  -6.40670   1.09734  21.12500
  11.57000  -6.39541   1.16135  21.12500
  11.58000  -6.38348   1.22525  21.12500
  11.59000  -6.37090   1.28902  21.12500
  11.60000  -6.35770   1.35266  21.12500
  11.61000  -6.34385   1.41617  21.12500
  11.62000  -6.32937   1.47954  21.12500
  11.63000  -6.31426   1.54276  21.12500
  11.64000  -6.29852   1.60582  21.12500
  11.65000  -6.28215   1.66873  21.12500
  11.66000  -6.26514   1.73146  21.12500
  11.67000  -6.24752   1.79403  21.12500
  11.68000  -6.22926   1.85641  21.12500
  11.69000  -6.21039   1.91861  21.12500
  11.70000  -6.19089   1.98062  21.12500
  11.71000  -6.17078   2.04243  21.12500
  11.72000  -6.15005   2.10403  21.12500
  11.73000  -6.12870   2.16543  21.12500
  11.74000  -6.10674   2.22660  21.12500
  11.75000  -6.08417   2.28756  21.12500
  11.76000  -6.06099   2.34828  21.12500
  11.77000  -6.03720   2.40878  21.12500
  11.78000  -6.01281   2.46903  21.12500
  11.79000  -5.98782   2.52903  21.12500
  11.80000  -5.96223   2.58878  21.12500
  11.81000  -5.93605   2.64827  21.12500
  11.82000  -5.90927   2.70750  21.12500
  11.83000  -5.88190   2.76646  21.12500
  11.84000  -5.85394   2.82514  21.12500
  11.85000  -5.82540   2.88353  21.12500
  11.86000  -5.79627   2.94164  21.12500
  11.87000  -5.76656   2.99946  21.12500
  11.88000  -5.73628   3.05697  21.12500
  11.89000  -5.70543   3.11418  21.12500
  11.90000  -5.67400   3.17108  21.12500
  11.91000  -5.64201   3.22766  21.12500
  11.92000  -5.60945   3.28392  21.12500
  11.93000  -5.57633   3.33985  21.12500
  11.94000  -5.54265   3.39544  21.12500
  11.95000  -5.50842   3.45070  21.12500
  11.96000  -5.47364   3.50561  21.12500
  11.97000  -5.43831   3.56017  21.12500
  11.98000  -5.40244   3.61437  21.12500
  11.99000  -5.36602   3.66821  21.12500
  12.00000  -5.32907   3.72169  21.12500
  12.01000  -5.29159   3.77479  21.12500
  12.02000  -5.25358   3.82752  21.12500
  12.03000  -5.21504   3.87986  21.12500
  12.04000  -5.17598   3.93182  21.12500
  12.05000  -5.13641   3.98338  21.12500
  12.06000  -5.09632   4.03455  21.12500
  12.07000  -5.05572   4.08531  21.12500
  12.08000  -5.01461   4.13566  21.12500
  12.09000  -4.97301   4.18560  21.12500
  12.10000  -4.93090   4.23512  21.12500
  12.11000  -4.88830   4.28421  21.12500
  12.12000  -4.84522   4.33288  21.12500
  12.13000  -4.80165   4.38112  21.12500
  12.14000  -4.75760   4.42891  21.12500
  12.15000  -4.71307   4.47627  21.12500
  12.16000  -4.66807   4.52317  21.12500
  12.17000  -4.62261   4.56963  21.12500
  12.18000  -4.57668   4.61562  21.12500
  12.19000  -4.53030   4.66116  21.12500
  12.20000  -4.48346   4.70623  21.12500
  12.21000  -4.43618   4.75083  21.12500
  12.22000  -4.38845   4.79495  21.12500
  12.23000  -4.34028   4.83859  21.12500
  12.24000  -4.29168   4.88175  21.12500
  12.25000  -4.24264   4.92443  21.12500
  12.26000  -4.19319   4.96661  21.12500
  12.27000  -4.14331   5.00829  21.12500
  12.28000  -4.09302   5.04947  21.12500
  12.29000  -4.04233   5.09015  21.12500
  12.30000  -3.99122   5.13032  21.12500
  12.31000  -3.93972   5.16997  21.12500
  12.32000  -3.88783   5.20911  21.12500
  12.33000  -3.83554   5.24773  21.12500
  12.34000  -3.78287   5.28582  21.12500
  12.35000  -3.72983   5.32338  21.12500
  12.36000  -3.67641   5.36041  21.12500
  12.37000  -3.62262   5.39691  21.12500
  12.38000  -3.56847   5.43286  21.12500
  12.39000  -3.51396   5.46828  21.12500
  12.40000  -3.45911   5.50314  21.12500
  12.41000  -3.40390   5.53746  21.12500
  12.42000  -3.34836   5.57122  21.12500
  12.43000  -3.29248   5.60442  21.12500
  12.44000  -3.23627   5.63707  21.12500
  12.45000  -3.17974   5.66915  21.12500
  12.46000  -3.12289   5.70066  21.12500
  12.47000  -3.06573   5.73161  21.12500
  12.48000  -3.00826   5.76198  21.12500
  12.49000  -2.95049   5.79177  21.12500
  12.50000  -2.89243   5.82098  21.12500
  12.51000  -2.83408   5.84962  21.12500
  12.52000  -2.77544   5.87766  21.12500
  12.53000  -2.71652   5.90512  21.12500
  12.54000  -2.65734   5.93199  21.12500
  12.55000  -2.59789   5.95827  21.12500
  12.56000  -2.53817   5.98395  21.12500
  12.57000  -2.47821   6.00903  21.12500
  12.58000  -2.41800   6.03351  21.12500
  12.59000  -2.35754   6.05739  21.12500
  12.60000  -2.29685   6.08066  21.12500
  12.61000  -2.23593   6.10333  21.12500
  12.62000  -2.17479   6.12538  21.12500
  12.63000  -2.11342   6.14682  21.12500
  12.64000  -2.05185   6.16765  21.12500
  12.65000  -1.99007   6.18786  21.12500
  12.66000  -1.92810   6.20745  21.12500
  12.67000  -1.86593   6.22642  21.12500
  12.68000  -1.80357   6.24477  21.12500
  12.69000  -1.74103   6.26249  21.12500
  12.70000  -1.67832   6.27959  21.12500
  12.71000  -1.61544   6.29606  21.12500
  12.72000  -1.55240   6.31190  21.12500
  12.73000  -1.48921   6.32711  21.12500
  12.74000  -1.42586   6.34168  21.12500
  12.75000  -1.36238   6.35562  21.12500
  12.76000  -1.29875   6.36893  21.12500
  12.77000  -1.23500   6.38160  21.12500
  12.78000  -1.17112   6.39363  21.12500
  12.79000  -1.10713   6.40502  21.12500
  12.80000  -1.04302   6.41577  21.12500
  12.81000  -0.97882   6.42588  21.12500
  12.82000  -0.91451   6.43535  21.12500
  12.83000  -0.85011   6.44417  21.12500
  12.84000  -0.78563   6.45235  21.12500
  12.85000  -0.72107   6.45988  21.12500
  12.86000  -0.65643   6.46677  21.12500
  12.87000  -0.59173   6.47301  21.12500
  12.88000  -0.52697   6.47860  21.12500
  12.89000  -0.46216   6.48355  21.12500
  12.90000  -0.39731   6.48785  21.12500
  12.91000  -0.33241   6.49149  21.12500
  12.92000  -0.26748   6.49449  21.12500
  12.93000  -0.20252   6.49684  21.12500
  12.94000  -0.13754   6.49854  21.12500
  12.95000  -0.07255   6.49960  21.12500
  12.96000  -0.00755   6.50000  21.12500
  12.97000   0.05745   6.49975  21.12500
  12.98000   0.12244   6.49885  21.12500
  12.99000   0.18742   6.49730  21.12500
  13.00000   0.25238   6.49510  21.12500
  13.01000   0.31732   6.49225  21.12500
  13.02000   0.38223   6.48875  21.12500
  13.03000   0.44709   6.48461  21.12500
  13.04000   0.51192   6.47981  21.12500
  13.05000   0.57669   6.47437  21.12500
  13.06000   0.64140   6.46828  21.12500
  13.07000   0.70605   6.46154  21.12500
  13.08000   0.77063   6.45416  21.12500
  13.09000   0.83513   6.44613  21.12500
  13.10000   0.89955   6.43745  21.12500
  13.11000   0.96388   6.42814  21.12500
  13.12000   1.02811   6.41818  21.12500
  13.13000   1.09224   6.40757  21.12500
  13.14000   1.15626   6.39633  21.12500
  13.15000   1.22016   6.38445  21.12500
  13.16000   1.28395   6.37193  21.12500
  13.17000   1.34760   6.35877  21.12500
  13.18000   1.41112   6.34498  21.12500
  13.19000   1.47450   6.33055  21.12500
  13.20000   1.53773   6.31549  21.12500
  13.21000   1.60081   6.29980  21.12500
  13.22000   1.66372   6.28347  21.12500
  13.23000   1.72647   6.26652  21.12500
  13.24000   1.78905   6.24894  21.12500
  13.25000   1.85145   6.23074  21.12500
  13.26000   1.91366   6.21192  21.12500
  13.27000   1.97569   6.19247  21.12500
  13.28000   2.03751   6.17240  21.12500
  13.29000   2.09913   6.15172  21.12500
  13.30000   2.16054   6.13042  21.12500
  13.31000   2.22174   6.10851  21.12500
  13.32000   2.28271   6.08599  21.12500
  13.33000   2.34346   6.06286  21.12500
  13.34000   2.40397   6.03912  21.12500
  13.35000   2.46424   6.01478  21.12500
  13.36000   2.52426   5.98983  21.12500
  13.37000   2.58403   5.96429  21.12500
  13.38000   2.64354   5.93815  21.12500
  13.39000   2.70279   5.91142  21.12500
  13.40000   2.76177   5.88410  21.12500
  13.41000   2.82047   5.85619  21.12500
  13.42000   2.87889   5.82769  21.12500
  13.43000   2.93702   5.79861  21.12500
  13.44000   2.99486   5.76895  21.12500
  13.45000   3.05240   5.73871  21.12500
  13.46000   3.10964   5.70790  21.12500
  13.47000   3.16656   5.67652  21.12500
  13.48000   3.22316   5.64457  21.12500
  13.49000   3.27945   5.61206  21.12500
  13.50000   3.33540   5.57899  21.12500
  13.51000   3.39103   5.54535  21.12500
  13.52000   3.44631   5.51117  21.12500
  13.53000   3.50125   5.47643  21.12500
  13.54000   3.55584   5.44114  21.12500
  13.55000   3.61007   5.40531  21.12500
  13.56000   3.66394   5.36894  21.12500
  13.57000   3.71744   5.33204  21.12500
  13.58000   3.77058   5.29460  21.12500
  13.59000   3.82334   5.25663  21.12500
  13.60000   3.87571   5.21813  21.12500
  13.61000   3.92770   5.17911  21.12500
  13.62000   3.97929   5.13958  21.12500
  13.63000   4.03049   5.09953  21.12500
  13.64000   4.08128   5.05897  21.12500
  13.65000   4.13166   5.01790  21.12500
  13.66000   4.18164   4.97634  21.12500
  13.67000   4.23119   4.93427  21.12500
  13.68000   4.28032   4.89171  21.12500
  13.69000   4.32902   4.84867  21.12500
  13.70000   4.37729   4.80514  21.12500
  13.71000   4.42512   4.76112  21.12500
  13.72000   4.47251   4.71663  21.12500
  13.73000   4.51945   4.67167  21.12500
  13.74000   4.56594   4.62625  21.12500
  13.75000   4.61198   4.58036  21.12500
  13.76000   4.65755   4.53401  21.12500
  13.77000   4.70266   4.48721  21.12500
  13.78000   4.74729   4.43996  21.12500
  13.79000   4.79145   4.39226  21.12500
  13.80000   4.83514   4.34413  21.12500
  13.81000   4.87833   4.29556  21.12500
  13.82000   4.92105   4.24656  21.12500
  13.83000   4.96326   4.19714  21.12500
  13.84000   5.00499   4.14730  21.12500
  13.85000   5.04621   4.09704  21.12500
  13.86000   5.08693   4.04638  21.12500
  13.87000   5.12714   3.99531  21.12500
  13.88000   5.16683   3.94384  21.12500
  13.89000   5.20601   3.89197  21.12500
  13.90000   5.24467   3.83972  21.12500
  13.91000   5.28280   3.78708  21.12500
  13.92000   5.32041   3.73406  21.12500
  13.93000   5.35748   3.68068  21.12500
  13.94000   5.39402   3.62692  21.12500
  13.95000   5.43002   3.57280  21.12500
  13.96000   5.46548   3.51832  21.12500
  13.97000   5.50039   3.46349  21.12500
  13.98000   5.53475   3.40831  21.12500
  13.99000   5.56855   3.35280  21.12500
  14.00000   5.60180   3.29694  21.12500
  14.01000   5.63449   3.24076  21.12500
  14.02000   5.66661   3.18426  21.12500
  14.03000   5.69817   3.12743  21.12500
  14.04000   5.72916   3.07029  21.12500
  14.05000   5.75958   3.01285  21.12500
  14.06000   5.78942   2.95510  21.12500
  14.07000   5.81868   2.89706  21.12500
  14.08000   5.84736   2.83873  21.12500
  14.09000   5.87545   2.78012  21.12500
  14.10000   5.90296   2.72123  21.12500
  14.11000   5.92988   2.66206  21.12500
  14.12000   5.95620   2.60263  21.12500
  14.13000   5.98193   2.54294  21.12500
  14.14000   6.00706   2.48299  21.12500
  14.15000   6.03159   2.42280  21.12500
  14.16000   6.05551   2.36236  21.12500
  14.17000   6.07883   2.30169  21.12500
  14.18000   6.10155   2.24079  21.12500
  14.19000   6.12365   2.17966  21.12500
  14.20000   6.14514   2.11832  21.12500
  14.21000   6.16601   2.05676  21.12500
  14.22000   6.18627   1.99500  21.12500
  14.23000   6.20591   1.93304  21.12500
  14.24000   6.22493   1.87088  21.12500
  14.25000   6.24333   1.80854  21.12500
  14.26000   6.26110   1.74602  21.12500
  14.27000   6.27825   1.68332  21.12500
  14.28000   6.29477   1.62046  21.12500
  14.29000   6.31066   1.55743  21.12500
  14.30000   6.32592   1.49425  21.12500
  14.31000   6.34054   1.43091  21.12500
  14.32000   6.35454   1.36744  21.12500
  14.33000   6.36789   1.30382  21.12500
  14.34000   6.38061   1.24008  21.12500
  14.35000   6.39269   1.17621  21.12500
  14.36000   6.40414   1.11223  21.12500
  14.37000   6.41494   1.04813  21.12500
  14.38000   6.42510   0.98393  21.12500
  14.39000   6.43462   0.91963  21.12500
  14.40000   6.44349   0.85524  21.12500
  14.41000   6.45172   0.79077  21.12500
  14.42000   6.45930   0.72621  21.12500
  14.43000   6.46624   0.66158  21.12500
  14.44000   6.47254   0.59689  21.12500
  14.45000   6.47818   0.53213  21.12500
  14.46000   6.48318   0.46733  21.12500
  14.47000   6.48753   0.40247  21.12500
  14.48000   6.49123   0.33758  21.12500
  14.49000   6.49428   0.27265  21.12500
  14.50000   6.49668   0.20769  21.12500
  14.51000   6.49843   0.14272  21.12500
  14.52000   6.49954   0.07773  21.12500
  14.53000   6.49999   0.01273  21.12500
  14.54000   6.49979  -0.05227  21.12500
  14.55000   6.49894  -0.11726  21.12500
  14.56000   6.49744  -0.18225  21.12500
  14.57000   6.49530  -0.24721  21.12500
  14.58000   6.49250  -0.31215  21.12500
  14.59000   6.48905  -0.37706  21.12500
  14.60000   6.48496  -0.44193  21.12500
  14.61000   6.48022  -0.50676  21.12500
  14.62000   6.47482  -0.57153  21.12500
  14.63000   6.46879  -0.63625  21.12500
  14.64000   6.46210  -0.70091  21.12500
  14.65000   6.45477  -0.76549  21.12500
  14.66000   6.44679  -0.83000  21.12500
  14.67000   6.43817  -0.89442  21.12500
  14.68000   6.42890  -0.95876  21.12500
  14.69000   6.41899  -1.02300  21.12500
  14.70000   6.40844  -1.08714  21.12500
  14.71000   6.39725  -1.15117  21.12500
  14.72000   6.38542  -1.21508  21.12500
  14.73000   6.37295  -1.27887  21.12500
  14.74000   6.35984  -1.34254  21.12500
  14.75000   6.34610  -1.40607  21.12500
  14.76000   6.33172  -1.46946  21.12500
  14.77000   6.31671  -1.53270  21.12500
  14.78000   6.30107  -1.59579  21.12500
  14.79000   6.28480  -1.65872  21.12500
  14.80000   6.26789  -1.72148  21.12500
  14.81000   6.25037  -1.78407  21.12500
  14.82000   6.23221  -1.84649  21.12500
  14.83000   6.21344  -1.90872  21.12500
  14.84000   6.19404  -1.97075  21.12500
  14.85000   6.17402  -2.03260  21.12500
  14.86000   6.15339  -2.09423  21.12500
  14.87000   6.13214  -2.15566  21.12500
  14.88000   6.11028  -2.21687  21.12500
  14.89000   6.08780  -2.27786  21.12500
  14.90000   6.06472  -2.33863  21.12500
  14.91000   6.04103  -2.39916  21.12500
  14.92000   6.01674  -2.45945  21.12500
  14.93000   5.99184  -2.51949  21.12500
  14.94000   5.96635  -2.57928  21.12500
  14.95000   5.94026  -2.63881  21.12500
  14.96000   5.91357  -2.69808  21.12500
  14.97000   5.88630  -2.75708  21.12500
  14.98000   5.85843  -2.81581  21.12500
  14.99000   5.82998  -2.87425  21.12500
  15.00000   5.80095  -2.93241  21.12500
  15.01000   5.77133  -2.99027  21.12500
  15.02000   5.74114  -3.04783  21.12500
  15.03000   5.71038  -3.10509  21.12500
  15.04000   5.67904  -3.16204  21.12500
  15.05000   5.64714  -3.21867  21.12500
  15.06000   5.61467  -3.27498  21.12500
  15.07000   5.58164  -3.33096  21.12500
  15.08000   5.54805  -3.38661  21.12500
  15.09000   5.51391  -3.44192  21.12500
  15.10000   5.47922  -3.49688  21.12500
  15.11000   5.44397  -3.55150  21.12500
  15.12000   5.40819  -3.60576  21.12500
  15.13000   5.37186  -3.65966  21.12500
  15.14000   5.33499  -3.71320  21.12500
  15.15000   5.29760  -3.76636  21.12500
  15.16000   5.25967  -3.81915  21.12500
  15.17000   5.22121  -3.87155  21.12500
  15.18000   5.18224  -3.92357  21.12500
  15.19000   5.14274  -3.97520  21.12500
  15.20000   5.10274  -4.02642  21.12500
  15.21000   5.06222  -4.07725  21.12500
  15.22000   5.02119  -4.12767  21.12500
  15.23000   4.97967  -4.17767  21.12500
  15.24000   4.93764  -4.22726  21.12500
  15.25000   4.89512  -4.27642  21.12500
  15.26000   4.85211  -4.32516  21.12500
  15.27000   4.80862  -4.37346  21.12500
  15.28000   4.76465  -4.42133  21.12500
  15.29000   4.72019  -4.46875  21.12500
  15.30000   4.67527  -4.51573  21.12500
  15.31000   4.62988  -4.56226  21.12500
  15.32000   4.58403  -4.60833  21.12500
  15.33000   4.53772  -4.65394  21.12500
  15.34000   4.49095  -4.69908  21.12500
  15.35000   4.44374  -4.74375  21.12500
  15.36000   4.39608  -4.78795  21.12500
  15.37000   4.34798  -4.83167  21.12500
  15.38000   4.29945  -4.87491  21.12500
  15.39000   4.25048  -4.91766  21.12500
  15.40000   4.20109  -4.95992  21.12500
  15.41000   4.15129  -5.00168  21.12500
  15.42000   4.10106  -5.04294  21.12500
  15.43000   4.05043  -5.08370  21.12500
  15.44000   3.99939  -5.12395  21.12500
  15.45000   3.94795  -5.16369  21.12500
  15.46000   3.89612  -5.20291  21.12500
  15.47000   3.84389  -5.24161  21.12500
  15.48000   3.79129  -5.27979  21.12500
  15.49000   3.73830  -5.31743  21.12500
  15.50000   3.68494  -5.35455  21.12500
  15.51000   3.63121  -5.39113  21.12500
  15.52000   3.57712  -5.42717  21.12500
  15.53000   3.52267  -5.46267  21.12500
  15.54000   3.46787  -5.49763  21.12500
  15.55000   3.41272  -5.53203  21.12500
  15.56000   3.35723  -5.56588  21.12500
  15.57000   3.30140  -5.59917  21.12500
  15.58000   3.24525  -5.63191  21.12500
  15.59000   3.18877  -5.66408  21.12500
  15.60000   3.13197  -5.69568  21.12500
  15.61000   3.07486  -5.72671  21.12500
  15.62000   3.01744  -5.75718  21.12500
  15.63000   2.95971  -5.78706  21.12500
  15.64000   2.90170  -5.81637  21.12500
  15.65000   2.84339  -5.84510  21.12500
  15.66000   2.78480  -5.87324  21.12500
  15.67000   2.72593  -5.90079  21.12500
  15.68000   2.66678  -5.92775  21.12500
  15.69000   2.60737  -5.95413  21.12500
  15.70000   2.54770  -5.97990  21.12500
  15.71000   2.48778  -6.00508  21.12500
  15.72000   2.42760  -6.02966  21.12500
  15.73000   2.36719  -6.05363  21.12500
  15.74000   2.30653  -6.07700  21.12500
  15.75000   2.24565  -6.09976  21.12500
  15.76000   2.18454  -6.12191  21.12500
  15.77000   2.12321  -6.14345  21.12500
  15.78000   2.06167  -6.16437  21.12500
  15.79000   1.99993  -6.18468  21.12500
  15.80000   1.93798  -6.20437  21.12500
  15.81000   1.87584  -6.22344  21.12500
  15.82000   1.81351  -6.24189  21.12500
  15.83000   1.75100  -6.25971  21.12500
  15.84000   1.68832  -6.27691  21.12500
  15.85000   1.62547  -6.29348  21.12500
  15.86000   1.56245  -6.30942  21.12500
  15.87000   1.49928  -6.32473  21.12500
  15.88000   1.43596  -6.33940  21.12500
  15.89000   1.37250  -6.35344  21.12500
  15.90000   1.30889  -6.36685  21.12500
  15.91000   1.24516  -6.37962  21.12500
  15.92000   1.18130  -6.39175  21.12500
  15.93000   1.11733  -6.40325  21.12500
  15.94000   1.05324  -6.41410  21.12500
  15.95000   0.98905  -6.42431  21.12500
  15.96000   0.92476  -6.43388  21.12500
  15.97000   0.86037  -6.44281  21.12500
  15.98000   0.79590  -6.45109  21.12500
  15.99000   0.73135  -6.45872  21.12500
  16.00000   0.66673  -6.46571  21.12500
  16.01000   0.60204  -6.47206  21.12500
  16.02000   0.53729  -6.47776  21.12500
  16.03000   0.47249  -6.48280  21.12500
  16.04000   0.40764  -6.48721  21.12500
  16.05000   0.34275  -6.49096  21.12500
  16.06000   0.27782  -6.49406  21.12500
  16.07000   0.21287  -6.49651  21.12500
  16.08000   0.14789  -6.49832  21.12500
  16.09000   0.08290  -6.49947  21.12500
  16.10000   0.01791  -6.49998  21.12500
  16.11000  -0.04709  -6.49983  21.12500
  16.12000  -0.11209  -6.49903  21.12500
  16.13000  -0.17707  -6.49759  21.12500
  16.14000  -0.24204  -6.49549  21.12500
  16.15000  -0.30698  -6.49275  21.12500
  16.16000  -0.37189  -6.48935  21.12500
  16.17000  -0.43676  -6.48531  21.12500
  16.18000  -0.50159  -6.48062  21.12500
  16.19000  -0.56637  -6.47528  21.12500
  16.20000  -0.63110  -6.46929  21.12500
  16.21000  -0.69576  -6.46266  21.12500
  16.22000  -0.76035  -6.45538  21.12500
  16.23000  -0.82486  -6.44745  21.12500
  16.24000  -0.88930  -6.43888  21.12500
  16.25000  -0.95364  -6.42966  21.12500
  16.26000  -1.01789  -6.41981  21.12500
  16.27000  -1.08203  -6.40931  21.12500
  16.28000  -1.14607  -6.39817  21.12500
  16.29000  -1.20999  -6.38638  21.12500
  16.30000  -1.27380  -6.37397  21.12500
  16.31000  -1.33747  -6.36091  21.12500
  16.32000  -1.40101  -6.34722  21.12500
  16.33000  -1.46441  -6.33289  21.12500
  16.34000  -1.52767  -6.31793  21.12500
  16.35000  -1.59077  -6.30234  21.12500
  16.36000  -1.65371  -6.28611  21.12500
  16.37000  -1.71649  -6.26926  21.12500
  16.38000  -1.77910  -6.25179  21.12500
  16.39000  -1.84152  -6.23368  21.12500
  16.40000  -1.90377  -6.21496  21.12500
  16.41000  -1.96582  -6.19561  21.12500
  16.42000  -2.02768  -6.17564  21.12500
  16.43000  -2.08933  -6.15505  21.12500
  16.44000  -2.15078  -6.13385  21.12500
  16.45000  -2.21201  -6.11204  21.12500
  16.46000  -2.27302  -6.08961  21.12500
  16.47000  -2.33380  -6.06658  21.12500
  16.48000  -2.39435  -6.04294  21.12500
  16.49000  -2.45465  -6.01869  21.12500
  16.50000  -2.51472  -5.99385  21.12500
  16.51000  -2.57453  -5.96840  21.12500
  16.52000  -2.63408  -5.94236  21.12500
  16.53000  -2.69337  -5.91572  21.12500
  16.54000  -2.75240  -5.88849  21.12500
  16.55000  -2.81114  -5.86067  21.12500
  16.56000  -2.86961  -5.83227  21.12500
  16.57000  -2.92779  -5.80328  21.12500
  16.58000  -2.98567  -5.77371  21.12500
  16.59000  -3.04326  -5.74357  21.12500
  16.60000  -3.10054  -5.71285  21.12500
  16.61000  -3.15751  -5.68156  21.12500
  16.62000  -3.21417  -5.64970  21.12500
  16.63000  -3.27050  -5.61728  21.12500
  16.64000  -3.32651  -5.58429  21.12500
  16.65000  -3.38219  -5.55075  21.12500
  16.66000  -3.43753  -5.51665  21.12500
  16.67000  -3.49252  -5.48200  21.12500
  16.68000  -3.54716  -5.44680  21.12500
  16.69000  -3.60145  -5.41106  21.12500
  16.70000  -3.65538  -5.37477  21.12500
  16.71000  -3.70895  -5.33795  21.12500
  16.72000  -3.76214  -5.30059  21.12500
  16.73000  -3.81496  -5.26271  21.12500
  16.74000  -3.86739  -5.22430  21.12500
  16.75000  -3.91944  -5.18536  21.12500
  16.76000  -3.97110  -5.14591  21.12500
  16.77000  -4.02236  -5.10594  21.12500
  16.78000  -4.07322  -5.06546  21.12500
  16.79000  -4.12367  -5.02448  21.12500
  16.80000  -4.17370  -4.98299  21.12500
  16.81000  -4.22332  -4.94101  21.12500
  16.82000  -4.27252  -4.89853  21.12500
  16.83000  -4.32129  -4.85556  21.12500
  16.84000  -4.36963  -4.81210  21.12500
  16.85000  -4.41753  -4.76816  21.12500
  16.86000  -4.46499  -4.72375  21.12500
  16.87000  -4.51201  -4.67887  21.12500
  16.88000  -4.55857  -4.63351  21.12500
  16.89000  -4.60468  -4.58770  21.12500
  16.90000  -4.65032  -4.54142  21.12500
  16.91000  -4.69550  -4.49469  21.12500
  16.92000  -4.74021  -4.44751  21.12500
  16.93000  -4.78445  -4.39989  21.12500
  16.94000  -4.82821  -4.35183  21.12500
  16.95000  -4.87149  -4.30333  21.12500
  16.96000  -4.91428  -4.25440  21.12500
  16.97000  -4.95657  -4.20504  21.12500
  16.98000  -4.99837  -4.15527  21.12500
  16.99000  -5.03968  -4.10508  21.12500
  17.00000  -5.08048  -4.05448  21.12500
  17.01000  -5.12077  -4.00347  21.12500
  17.02000  -5.16054  -3.95206  21.12500
  17.03000  -5.19981  -3.90026  21.12500
  17.04000  -5.23855  -3.84807  21.12500
  17.05000  -5.27677  -3.79549  21.12500
  17.06000  -5.31446  -3.74253  21.12500
  17.07000  -5.35161  -3.68920  21.12500
  17.08000  -5.38824  -3.63550  21.12500
  17.09000  -5.42432  -3.58144  21.12500
  17.10000  -5.45987  -3.52702  21.12500
  17.11000  -5.49486  -3.47224  21.12500
  17.12000  -5.52931  -3.41712  21.12500
  17.13000  -5.56320  -3.36166  21.12500
  17.14000  -5.59654  -3.30586  21.12500
  17.15000  -5.62932  -3.24973  21.12500
  17.16000  -5.66154  -3.19328  21.12500
  17.17000  -5.69318  -3.13650  21.12500
  17.18000  -5.72426  -3.07942  21.12500
  17.19000  -5.75477  -3.02202  21.12500
  17.20000  -5.78470  -2.96432  21.12500
  17.21000  -5.81406  -2.90633  21.12500
  17.22000  -5.84283  -2.84804  21.12500
  17.23000  -5.87102  -2.78947  21.12500
  17.24000  -5.89862  -2.73062  21.12500
  17.25000  -5.92563  -2.67150  21.12500
  17.26000  -5.95205  -2.61211  21.12500
  17.27000  -5.97787  -2.55246  21.12500
  17.28000  -6.00310  -2.49256  21.12500
  17.29000  -6.02772  -2.43240  21.12500
  17.30000  -6.05174  -2.37201  21.12500
  17.31000  -6.07516  -2.31137  21.12500
  17.32000  -6.09797  -2.25050  21.12500
  17.33000  -6.12017  -2.18941  21.12500
  17.34000  -6.14176  -2.12810  21.12500
  17.35000  -6.16273  -2.06658  21.12500
  17.36000  -6.18309  -2.00485  21.12500
  17.37000  -6.20283  -1.94292  21.12500
  17.38000  -6.22195  -1.88080  21.12500
  17.39000  -6.24044  -1.81848  21.12500
  17.40000  -6.25831  -1.75599  21.12500
  17.41000  -6.27556  -1.69332  21.12500
  17.42000  -6.29218  -1.63048  21.12500
  17.43000  -6.30817  -1.56748  21.12500
  17.44000  -6.32353  -1.50432  21.12500
  17.45000  -6.33826  -1.44101  21.12500
  17.46000  -6.35235  -1.37756  21.12500
  17.47000  -6.36581  -1.31396  21.12500
  17.48000  -6.37863  -1.25024  21.12500
  17.49000  -6.39081  -1.18639  21.12500
  17.50000  -6.40236  -1.12243  21.12500
  17.51000  -6.41326  -1.05835  21.12500
  17.52000  -6.42352  -0.99416  21.12500
  17.53000  -6.43314  -0.92988  21.12500
  17.54000  -6.44212  -0.86550  21.12500
  17.55000  -6.45045  -0.80104  21.12500
  17.56000  -6.45814  -0.73650  21.12500
  17.57000  -6.46518  -0.67188  21.12500
  17.58000  -6.47158  -0.60720  21.12500
  17.59000  -6.47733  -0.54245  21.12500
  17.60000  -6.48243  -0.47765  21.12500
  17.61000  -6.48688  -0.41280  21.12500
  17.62000  -6.49068  -0.34792  21.12500
  17.63000  -6.49384  -0.28299  21.12500
  17.64000  -6.49634  -0.21804  21.12500
  17.65000  -6.49820  -0.15307  21.12500
  17.66000  -6.49940  -0.08808  21.12500
  17.67000  -6.49996  -0.02308  21.12500
  17.68000  -6.49986   0.04192  21.12500
  17.69000  -6.49912   0.10691  21.12500
  17.70000  -6.49773   0.17190  21.12500
  17.71000  -6.49568   0.23687  21.12500
  17.72000  -6.49299   0.30181  21.12500
  17.73000  -6.48965   0.36672  21.12500
  17.74000  -6.48566   0.43160  21.12500
  17.75000  -6.48101   0.49643  21.12500
  17.76000  -6.47573   0.56122  21.12500
  17.77000  -6.46979   0.62595  21.12500
  17.78000  -6.46321   0.69061  21.12500
  17.79000  -6.45598   0.75521  21.12500
  17.80000  -6.44810   0.81973  21.12500
  17.81000  -6.43958   0.88417  21.12500
  17.82000  -6.43042   0.94852  21.12500
  17.83000  -6.42061   1.01277  21.12500
  17.84000  -6.41017   1.07693  21.12500
  17.85000  -6.39908   1.14098  21.12500
  17.86000  -6.38735   1.20491  21.12500
  17.87000  -6.37498   1.26872  21.12500
  17.88000  -6.36197   1.33241  21.12500
  17.89000  -6.34833   1.39596  21.12500
  17.90000  -6.33405   1.45937  21.12500
  17.91000  -6.31914   1.52264  21.12500
  17.92000  -6.30360   1.58575  21.12500
  17.93000  -6.28743   1.64871  21.12500
  17.94000  -6.27063   1.71150  21.12500
  17.95000  -6.25320   1.77412  21.12500
  17.96000  -6.23515   1.83656  21.12500
  17.97000  -6.21647   1.89882  21.12500
  17.98000  -6.19717   1.96089  21.12500
  17.99000  -6.17725   2.02276  21.12500
  18.00000  -6.15672   2.08443  21.12500
  18.01000  -6.13556   2.14589  21.12500
  18.02000  -6.11380   2.20714  21.12500
  18.03000  -6.09142   2.26817  21.12500
  18.04000  -6.06844   2.32897  21.12500
  18.05000  -6.04484   2.38953  21.12500
  18.06000  -6.02065   2.44986  21.12500
  18.07000  -5.99585   2.50994  21.12500
  18.08000  -5.97045   2.56978  21.12500
  18.09000  -5.94445   2.62935  21.12500
  18.10000  -5.91786   2.68866  21.12500
  18.11000  -5.89068   2.74771  21.12500
  18.12000  -5.86291   2.80647  21.12500
  18.13000  -5.83455   2.86496  21.12500
  18.14000  -5.80561   2.92316  21.12500
  18.15000  -5.77609   2.98107  21.12500
  18.16000  -5.74599   3.03868  21.12500
  18.17000  -5.71532   3.09599  21.12500
  18.18000  -5.68407   3.15299  21.12500
  18.19000  -5.65226   3.20967  21.12500
  18.20000  -5.61988   3.26603  21.12500
  18.21000  -5.58694   3.32207  21.12500
  18.22000  -5.55344   3.37777  21.12500
  18.23000  -5.51938   3.43313  21.12500
  18.24000  -5.48478   3.48815  21.12500
  18.25000  -5.44962   3.54283  21.12500
  18.26000  -5.41392   3.59714  21.12500
  18.27000  -5.37768   3.65110  21.12500
  18.28000  -5.34090   3.70470  21.12500
  18.29000  -5.30359   3.75792  21.12500
  18.30000  -5.26574   3.81077  21.12500
  18.31000  -5.22737   3.86323  21.12500
  18.32000  -5.18848   3.91531  21.12500
  18.33000  -5.14907   3.96700  21.12500
  18.34000  -5.10914   4.01829  21.12500
  18.35000  -5.06870   4.06918  21.12500
  18.36000  -5.02776   4.11966  21.12500
  18.37000  -4.98631   4.16973  21.12500
  18.38000  -4.94437   4.21939  21.12500
  18.39000  -4.90193   4.26862  21.12500
  18.40000  -4.85900   4.31742  21.12500
  18.41000  -4.81558   4.36580  21.12500
  18.42000  -4.77168   4.41373  21.12500
  18.43000  -4.72731   4.46123  21.12500
  18.44000  -4.68246   4.50828  21.12500
  18.45000  -4.63714   4.55488  21.12500
  18.46000  -4.59136   4.60102  21.12500
  18.47000  -4.54512   4.64670  21.12500
  18.48000  -4.49843   4.69192  21.12500
  18.49000  -4.45129   4.73667  21.12500
  18.50000  -4.40370   4.78095  21.12500
  18.51000  -4.35567   4.82474  21.12500
  18.52000  -4.30720   4.86806  21.12500
  18.53000  -4.25831   4.91089  21.12500
  18.54000  -4.20899   4.95322  21.12500
  18.55000  -4.15925   4.99506  21.12500
  18.56000  -4.10909   5.03641  21.12500
  18.57000  -4.05852   5.07724  21.12500
  18.58000  -4.00755   5.11758  21.12500
  18.59000  -3.95617   5.15739  21.12500
  18.60000  -3.90440   5.19670  21.12500
  18.61000  -3.85224   5.23548  21.12500
  18.62000  -3.79969   5.27374  21.12500
  18.63000  -3.74677   5.31147  21.12500
  18.64000  -3.69346   5.34867  21.12500
  18.65000  -3.63979   5.38534  21.12500
  18.66000  -3.58576   5.42147  21.12500
  18.67000  -3.53137   5.45706  21.12500
  18.68000  -3.47662   5.49210  21.12500
  18.69000  -3.42153   5.52659  21.12500
  18.70000  -3.36609   5.56053  21.12500
  18.71000  -3.31032   5.59391  21.12500
  18.72000  -3.25421   5.62673  21.12500
  18.73000  -3.19778   5.65899  21.12500
  18.74000  -3.14104   5.69068  21.12500
  18.75000  -3.08397   5.72181  21.12500
  18.76000  -3.02660   5.75236  21.12500
  18.77000  -2.96893   5.78234  21.12500
  18.78000  -2.91096   5.81174  21.12500
  18.79000  -2.85269   5.84056  21.12500
  18.80000  -2.79415   5.86879  21.12500
  18.81000  -2.73532   5.89644  21.12500
  18.82000  -2.67622   5.92350  21.12500
  18.83000  -2.61685   5.94996  21.12500
  18.84000  -2.55722   5.97584  21.12500
  18.85000  -2.49734   6.00111  21.12500
  18.86000  -2.43720   6.02578  21.12500
  18.87000  -2.37682   6.04985  21.12500
  18.88000  -2.31621   6.07332  21.12500
  18.89000  -2.25536   6.09618  21.12500
  18.90000  -2.19429   6.11842  21.12500
  18.91000  -2.13299   6.14006  21.12500
  18.92000  -2.07149   6.16108  21.12500
  18.93000  -2.00977   6.18149  21.12500
  18.94000  -1.94786   6.20128  21.12500
  18.95000  -1.88575   6.22045  21.12500
  18.96000  -1.82345   6.23899  21.12500
  18.97000  -1.76097   6.25691  21.12500
  18.98000  -1.69832   6.27421  21.12500
  18.99000  -1.63549   6.29088  21.12500
  19.00000  -1.57250   6.30692  21.12500
  19.01000  -1.50935   6.32233  21.12500
  19.02000  -1.44606   6.33711  21.12500
  19.03000  -1.38261   6.35125  21.12500
  19.04000  -1.31903   6.36476  21.12500
  19.05000  -1.25532   6.37763  21.12500
  19.06000  -1.19148   6.38986  21.12500
  19.07000  -1.12753   6.40146  21.12500
  19.08000  -1.06346   6.41241  21.12500
  19.09000  -0.99928   6.42273  21.12500
  19.10000  -0.93500   6.43240  21.12500
  19.11000  -0.87063   6.44143  21.12500
  19.12000  -0.80618   6.44981  21.12500
  19.13000  -0.74164   6.45755  21.12500
  19.14000  -0.67703   6.46464  21.12500
  19.15000  -0.61235   6.47109  21.12500
  19.16000  -0.54761   6.47689  21.12500
  19.17000  -0.48281   6.48204  21.12500
  19.18000  -0.41797   6.48655  21.12500
  19.19000  -0.35308   6.49040  21.12500
  19.20000  -0.28816   6.49361  21.12500
  19.21000  -0.22321   6.49617  21.12500
  19.22000  -0.15824   6.49807  21.12500
  19.23000  -0.09326   6.49933  21.12500
  19.24000  -0.02826   6.49994  21.12500
  19.25000   0.03674   6.49990  21.12500
  19.26000   0.10174   6.49920  21.12500
  19.27000   0.16672   6.49786  21.12500
  19.28000   0.23169   6.49587  21.12500
  19.29000   0.29664   6.49323  21.12500
  19.30000   0.36155   6.48994  21.12500
  19.31000   0.42643   6.48600  21.12500
  19.32000   0.49127   6.48141  21.12500
  19.33000   0.55606   6.47617  21.12500
  19.34000   0.62079   6.47029  21.12500
  19.35000   0.68546   6.46376  21.12500
  19.36000   0.75007   6.45658  21.12500
  19.37000   0.81459   6.44875  21.12500
  19.38000   0.87904   6.44029  21.12500
  19.39000   0.94340   6.43117  21.12500
  19.40000   1.00766   6.42142  21.12500
  19.41000   1.07182   6.41102  21.12500
  19.42000   1.13588   6.39998  21.12500
  19.43000   1.19982   6.38830  21.12500
  19.44000   1.26364   6.37599  21.12500
  19.45000   1.32734   6.36303  21.12500
  19.46000   1.39090   6.34944  21.12500
  19.47000   1.45433   6.33521  21.12500
  19.48000   1.51760   6.32035  21.12500
  19.49000   1.58073   6.30486  21.12500
  19.50000   1.64370   6.28874  21.12500
  19.51000   1.70650   6.27199  21.12500
  19.52000   1.76914   6.25461  21.12500
  19.53000   1.83159   6.23661  21.12500
  19.54000   1.89387   6.21798  21.12500
  19.55000   1.95595   6.19873  21.12500
  19.56000   2.01784   6.17886  21.12500
  19.57000   2.07953   6.15837  21.12500
  19.58000   2.14100   6.13727  21.12500
  19.59000   2.20227   6.11555  21.12500
  19.60000   2.26331   6.09323  21.12500
  19.61000   2.32413   6.07029  21.12500
  19.62000   2.38472   6.04674  21.12500
  19.63000   2.44506   6.02260  21.12500
  19.64000   2.50517   5.99784  21.12500
  19.65000   2.56502   5.97249  21.12500
  19.66000   2.62462   5.94654  21.12500
  19.67000   2.68395   5.92000  21.12500
  19.68000   2.74301   5.89287  21.12500
  19.69000   2.80180   5.86514  21.12500
  19.70000   2.86031   5.83683  21.12500
  19.71000   2.91854   5.80794  21.12500
  19.72000   2.97647   5.77846  21.12500
  19.73000   3.03411   5.74841  21.12500
  19.74000   3.09144   5.71778  21.12500
  19.75000   3.14846   5.68658  21.12500
  19.76000   3.20517   5.65481  21.12500
  19.77000   3.26155   5.62248  21.12500
  19.78000   3.31761   5.58958  21.12500
  19.79000   3.37334   5.55613  21.12500
  19.80000   3.42874   5.52212  21.12500
  19.81000   3.48378   5.48755  21.12500
  19.82000   3.53848   5.45244  21.12500
  19.83000   3.59283   5.41679  21.12500
  19.84000   3.64682   5.38059  21.12500
  19.85000   3.70044   5.34385  21.12500
  19.86000   3.75369   5.30658  21.12500
  19.87000   3.80657   5.26878  21.12500
  19.88000   3.85907   5.23045  21.12500
  19.89000   3.91118   5.19160  21.12500
  19.90000   3.96290   5.15223  21.12500
  19.91000   4.01422   5.11234  21.12500
  19.92000   4.06514   5.07194  21.12500
  19.93000   4.11566   5.03104  21.12500
  19.94000   4.16576   4.98963  21.12500
  19.95000   4.21545   4.94773  21.12500
  19.96000   4.26471   4.90532  21.12500
  19.97000   4.31355   4.86243  21.12500
  19.98000   4.36196   4.81905  21.12500
  19.99000   4.40993   4.77519  21.12500
  20.00000   4.45746   4.73086  21.12500
  20.01000   4.50455   4.68605  21.12500
